File: xrd-UiO-67/standard/BPDC.xye
3   0   4.4
3.06   0   4.4
3.12   0   4.4
3.18   0   4.4
3.24   0   4.4
3.3   0   4.4
3.36   0   4.4
3.42   0   4.4
3.48   0   4.4
3.54   0   4.4
3.6   0   4.4
3.66   0   4.4
3.72   0   4.4
3.78   0   4.4
3.84   0   4.4
3.9   0   4.4
3.96   0   4.4
4.02   0   4.4
4.08   0   4.4
4.14   0   4.4
4.2   0   4.4
4.26   0   4.4
4.32   0   4.4
4.38   0   4.4
4.44   0   4.4
4.5   0   4.4
4.56   0   4.4
4.62   0   4.4
4.68   0   4.4
4.74   0   4.4
4.8   0   4.4
4.86   0   4.4
4.92   0   4.4
4.98   0   4.4
5.04   0   4.4
5.1   0   4.4
5.16   0   4.4
5.22   0   4.4
5.28   0   4.4
5.34   0   4.4
5.4   0   4.4
5.46   0   4.4
5.52   0   4.4
5.58   0   4.4
5.64   0   4.4
5.7   0   4.4
5.76   0   4.4
5.82   0   4.4
5.88   0   4.4
5.94   0   4.4
6   0   4.4
6.06   0   4.4
6.12   0   4.4
6.18   0   4.4
6.24   0   4.4
6.3   0   4.4
6.36   0   4.4
6.42   0   4.4
6.48   0   4.4
6.54   0   4.4
6.6   0   4.4
6.66   0   4.4
6.72   0   4.4
6.78   0   4.4
6.84   0   4.4
6.9   0   4.4
6.96   0   4.4
7.02   0   4.4
7.08   0   4.4
7.14   0   4.4
7.2   0   4.4
7.26   0   4.4
7.32   0   4.4
7.38   0   4.4
7.44   0   4.4
7.5   0   4.4
7.56   0   4.4
7.62   0   4.4
7.68   0   4.4
7.74   0   4.4
7.8   0   4.4
7.86   0   4.4
7.92   0   4.4
7.98   0   4.4
8.04   0   4.4
8.1   0.156344   4.4
8.16   0.170051   4.4
8.22   0.185641   4.4
8.28   0.203477   4.4
8.34   0.22401   4.4
8.4   0.247814   4.4
8.46   0.275621   4.4
8.52   0.308381   4.4
8.58   0.347344   4.4
8.64   0.394176   4.4
8.7   0.451149   4.4
8.76   0.521411   4.4
8.82   0.609432   4.4
8.88   0.721731   4.4
8.94   0.86811   4.4
9   1.06385   4.4
9.06   1.33382   4.4
9.12   1.72072   4.4
9.18   2.30275   4.4
9.24   3.23559   4.4
9.3   4.86507   4.4
9.36   8.08362   4.4
9.42   15.891   4.4
9.48   45.367   6.7355
9.54   145.879   12.078
9.6   91.9835   9.5908
9.66   26.5216   5.14992
9.72   11.3629   4.4
9.78   6.32491   4.4
9.84   4.00382   4.4
9.9   2.75404   4.4
9.96   2.00751   4.4
10.02   1.52709   4.4
10.08   1.20013   4.4
10.14   0.96775   4.4
10.2   0.796753   4.4
10.26   0.667312   4.4
10.32   0.566993   4.4
10.38   0.487682   4.4
10.44   0.423903   4.4
10.5   0.379539   4.4
10.56   0.337195   4.4
10.62   0.301998   4.4
10.68   0.272507   4.4
10.74   0.247644   4.4
10.8   0.226595   4.4
10.86   0.208745   4.4
10.92   0.193627   4.4
10.98   0.180899   4.4
11.04   0.0196473   4.4
11.1   0.0225462   4.4
11.16   0.0261363   4.4
11.22   0.0306559   4.4
11.28   0.0364551   4.4
11.34   0.0440657   4.4
11.4   0.0543258   4.4
11.46   0.0686195   4.4
11.52   0.0893623   4.4
11.58   0.121076   4.4
11.64   0.173015   4.4
11.7   0.266525   4.4
11.76   0.555182   4.4
11.82   1.08079   4.4
11.88   3.26252   4.4
11.94   7.84411   4.4
12   3.20519   4.4
12.06   1.10971   4.4
12.12   0.621239   4.4
12.18   0.450632   4.4
12.24   0.381517   4.4
12.3   0.357943   4.4
12.36   0.36025   4.4
12.42   0.381126   4.4
12.48   0.41865   4.4
12.54   0.474118   4.4
12.6   0.551653   4.4
12.66   0.658902   4.4
12.72   0.808984   4.4
12.78   1.02463   4.4
12.84   1.34714   4.4
12.9   1.85717   4.4
12.96   2.72866   4.4
13.02   4.39189   4.4
13.08   8.16686   4.4
13.14   20.7417   4.55431
13.2   72.4653   8.51266
13.26   76.3711   8.73906
13.32   22.0131   4.69181
13.38   8.46951   4.4
13.44   4.49863   4.4
13.5   2.77248   4.4
13.56   1.87302   4.4
13.62   1.34785   4.4
13.68   1.01547   4.4
13.74   0.792129   4.4
13.8   0.634963   4.4
13.86   0.520241   4.4
13.92   0.433973   4.4
13.98   0.367483   4.4
14.04   0.315164   4.4
14.1   0.273261   4.4
14.16   0.239184   4.4
14.22   0.211101   4.4
14.28   0.187685   4.4
14.34   0.167957   4.4
14.4   0.151182   4.4
14.46   0.136799   4.4
14.52   0.124374   4.4
14.58   0.113567   4.4
14.64   0.10411   4.4
14.7   0.0957858   4.4
14.76   0   4.4
14.82   0   4.4
14.88   0   4.4
14.94   0   4.4
15   0   4.4
15.06   0   4.4
15.12   0   4.4
15.18   0   4.4
15.24   0   4.4
15.3   0   4.4
15.36   0   4.4
15.42   0   4.4
15.48   0   4.4
15.54   0   4.4
15.6   0   4.4
15.66   0   4.4
15.72   10.3029   4.4
15.78   11.2225   4.4
15.84   12.271   4.4
15.9   13.4734   4.4
15.96   14.8615   4.4
16.02   16.4756   4.4
16.08   18.3674   4.4
16.14   20.6045   4.53922
16.2   23.2763   4.82455
16.26   26.503   5.1481
16.32   30.4492   5.51808
16.38   35.3459   5.94524
16.44   41.5239   6.4439
16.5   49.4716   7.03361
16.56   59.9338   7.74169
16.62   74.0909   8.60761
16.68   93.9039   9.6904
16.74   122.823   11.0825
16.8   167.368   12.9371
16.86   241.064   15.5262
16.92   375.646   19.3816
16.98   659.995   25.6904
17.04   1461.88   38.2345
17.1   4910.81   70.0772
17.16   10000   100
17.22   3461.59   58.8353
17.28   1138.56   33.7426
17.34   558.848   23.64
17.4   330.399   18.1769
17.46   217.204   14.7378
17.52   153.334   12.3828
17.58   113.898   10.6723
17.64   87.8866   9.37478
17.7   69.8461   8.3574
17.76   56.8298   7.53855
17.82   47.1341   6.86543
17.88   39.7203   6.3024
17.94   33.9254   5.82455
18   29.3108   5.41394
18.06   25.5766   5.05733
18.12   22.5126   4.74474
18.18   19.9675   4.4685
18.24   17.8306   4.4
18.3   16.0191   4.4
18.36   14.5434   4.4
18.42   13.2151   4.4
18.48   12.0642   4.4
18.54   11.061   4.4
18.6   10.1821   4.4
18.66   0.117696   4.4
18.72   0.131144   4.4
18.78   0.147108   4.4
18.84   0.166316   4.4
18.9   0.189853   4.4
18.96   0.219513   4.4
19.02   0.258919   4.4
19.08   0.320166   4.4
19.14   0.458434   4.4
19.2   0.576871   4.4
19.26   0.550239   4.4
19.32   0.644187   4.4
19.38   0.816859   4.4
19.44   1.08633   4.4
19.5   1.52241   4.4
19.56   2.28661   4.4
19.62   3.79817   4.4
19.68   7.4692   4.4
19.74   21.3484   4.62043
19.8   68.5268   8.27809
19.86   42.9752   6.55555
19.92   12.3973   4.4
19.98   5.31776   4.4
20   4.29363   4.4