File: xrd-UiO-67/standard/hcp.xye
3   12.1452   4.4
3.06   13.6997   4.4
3.12   15.5725   4.4
3.18   17.8569   4.4
3.24   20.6826   4.54781
3.3   24.2349   4.9229
3.36   28.7857   5.36523
3.42   34.7464   5.8946
3.48   42.7636   6.53939
3.54   53.9007   7.34171
3.6   70.0048   8.36689
3.66   94.512   9.72173
3.72   134.4   11.5931
3.78   205.588   14.3383
3.84   350.771   18.7289
3.9   730.595   27.0295
3.96   2277.14   47.7194
4.02   6147.68   78.4072
4.08   2729.84   52.2479
4.14   832.203   28.8479
4.2   386.753   19.666
4.26   234.69   15.3196
4.32   158.337   12.5832
4.38   117.127   10.8225
4.44   93.0693   9.64724
4.5   78.4772   8.85874
4.56   69.6843   8.34771
4.62   64.8276   8.05156
4.68   62.9627   7.9349
4.74   63.6901   7.98061
4.8   67.015   8.18627
4.86   73.3522   8.56459
4.92   83.6883   9.14813
4.98   100.028   10.0014
5.04   126.546   11.2493
5.1   172.881   13.1484
5.16   265.625   16.298
5.22   515.547   22.7057
5.28   1545.75   39.316
5.34   2812.32   53.0313
5.4   1110.86   33.3295
5.46   655.423   25.6012
5.52   762.337   27.6105
5.58   1415.43   37.6222
5.64   4411.46   66.4188
5.7   10000   100
5.76   3760.68   61.3243
5.82   1214.23   34.8457
5.88   592.613   24.3436
5.94   352.868   18.7848
6   235.017   15.3303
6.06   168.997   12.9999
6.12   128.735   11.3461
6.18   102.876   10.1428
6.24   85.9862   9.27288
6.3   75.4395   8.68559
6.36   70.3323   8.38643
6.42   71.4946   8.45545
6.48   83.1242   9.11725
6.54   120.87   10.9941
6.6   274.884   16.5796
6.66   837.085   28.9324
6.72   586.079   24.2091
6.78   182.065   13.4931
6.84   84.0949   9.17033
6.9   52.286   7.23091
6.96   37.2039   6.0995
7.02   28.7427   5.36122
7.08   23.4444   4.84195
7.14   19.868   4.45736
7.2   8.2013   4.4
7.26   7.02895   4.4
7.32   6.26551   4.4
7.38   5.81153   4.4
7.44   5.62034   4.4
7.5   5.68576   4.4
7.56   6.04341   4.4
7.62   6.78763   4.4
7.68   8.11708   4.4
7.74   10.4494   4.4
7.8   15.1901   4.4
7.86   23.9629   4.89519
7.92   45.7699   6.76535
7.98   130.284   11.4142
8.04   401.431   20.0358
8.1   230.742   15.1902
8.16   67.4923   8.21537
8.22   30.0746   5.48403
8.28   17.4095   4.4
8.34   11.6034   4.4
8.4   8.55506   4.4
8.46   6.83815   4.4
8.52   5.86281   4.4
8.58   5.36159   4.4
8.64   5.35505   4.4
8.7   5.54076   4.4
8.76   6.0806   4.4
8.82   7.0895   4.4
8.88   8.82252   4.4
8.94   11.8329   4.4
9   17.427   4.4
9.06   29.2205   5.40559
9.12   61.5521   7.84551
9.18   198.989   14.1063
9.24   454.33   21.315
9.3   171.336   13.0896
9.36   55.9632   7.48086
9.42   29.3349   5.41617
9.48   19.4245   4.40732
9.54   15.7328   4.4
9.6   20.2108   4.49564
9.66   34.9837   5.9147
9.72   19.2981   4.4
9.78   12.1218   4.4
9.84   11.7623   4.4
9.9   14.5874   4.4
9.96   24.2961   4.92911
10.02   64.8201   8.05109
10.08   147.224   12.1336
10.14   62.3701   7.89747
10.2   25.8709   5.08635
10.26   18.3955   4.4
10.32   17.2641   4.4
10.38   19.0934   4.4
10.44   23.8746   4.88617
10.5   33.7744   5.81157
10.56   58.0525   7.61922
10.62   145.922   12.0798
10.68   267.351   16.3509
10.74   206.194   14.3595
10.8   469.505   21.6681
10.86   1077.34   32.8228
10.92   423.717   20.5844
10.98   139.235   11.7998
11.04   71.2038   8.43823
11.1   46.8382   6.84384
11.16   37.74   6.14329
11.22   38.5884   6.21196
11.28   55.6492   7.45984
11.34   142.21   11.9252
11.4   342.575   18.5088
11.46   147.287   12.1362
11.52   50.816   7.12853
11.58   27.6455   5.2579
11.64   19.3277   4.4
11.7   15.8969   4.4
11.76   15.0552   4.4
11.82   16.4823   4.4
11.88   21.2437   4.60908
11.94   33.8844   5.82103
12   77.2845   8.79116
12.06   258.506   16.0781
12.12   281.597   16.7809
12.18   88.9996   9.43396
12.24   55.7958   7.46966
12.3   39.1209   6.25467
12.36   16.8926   4.4
12.42   10.0238   4.4
12.48   7.02148   4.4
12.54   5.33931   4.4
12.6   4.29907   4.4
12.66   3.62706   4.4
12.72   3.1916   4.4
12.78   2.93079   4.4
12.84   2.82061   4.4
12.9   2.56105   4.4
12.96   2.83735   4.4
13.02   3.45432   4.4
13.08   4.81113   4.4
13.14   8.73212   4.4
13.2   21.58   4.64543
13.26   25.1028   5.01027
13.32   45.5636   6.75008
13.38   108.956   10.4382
13.44   45.871   6.77281
13.5   14.7162   4.4
13.56   7.2302   4.4
13.62   4.09583   4.4
13.68   2.74302   4.4
13.74   1.98652   4.4
13.8   1.53801   4.4
13.86   1.26395   4.4
13.92   1.10231   4.4
13.98   1.03419   4.4
14.04   1.13158   4.4
14.1   1.76739   4.4
14.16   1.80113   4.4
14.22   1.38808   4.4
14.28   1.62056   4.4
14.34   1.44489   4.4
14.4   1.6698   4.4
14.46   2.32962   4.4
14.52   3.81793   4.4
14.58   8.1175   4.4
14.64   26.5069   5.14848
14.7   53.9021   7.3418
14.76   18.9817   4.4
14.82   6.54919   4.4
14.88   3.41999   4.4
14.94   2.32858   4.4
15   1.9676   4.4
15.06   2.19497   4.4
15.12   3.18109   4.4
15.18   7.3713   4.4
15.24   15.9661   4.4
15.3   6.88454   4.4
15.36   3.93792   4.4
15.42   2.5365   4.4
15.48   1.58531   4.4
15.54   1.36632   4.4
15.6   1.38593   4.4
15.66   1.55549   4.4
15.72   1.95671   4.4
15.78   2.59136   4.4
15.84   3.80185   4.4
15.9   6.52448   4.4
15.96   15.7034   4.4
16.02   43.8766   6.62394
16.08   42.2109   6.49699
16.14   70.574   8.40083
16.2   39.7575   6.30536
16.26   17.2397   4.4
16.32   10.3775   4.4
16.38   6.18148   4.4
16.44   6.88199   4.4
16.5   16.3134   4.4
16.56   19.6978   4.43822
16.62   6.75306   4.4
16.68   3.30951   4.4
16.74   2.38396   4.4
16.8   2.14714   4.4
16.86   2.31561   4.4
16.92   3.02709   4.4
16.98   5.07473   4.4
17.04   9.92166   4.4
17.1   30.049   5.48169
17.16   51.0184   7.14272
17.22   16.8053   4.4
17.28   6.35801   4.4
17.34   4.27303   4.4
17.4   3.63952   4.4
17.46   2.25979   4.4
17.52   1.95119   4.4
17.58   2.16266   4.4
17.64   3.46923   4.4
17.7   9.28034   4.4
17.76   9.04545   4.4
17.82   4.12809   4.4
17.88   4.76635   4.4
17.94   11.872   4.4
18   10.4331   4.4
18.06   4.04802   4.4
18.12   2.69091   4.4
18.18   2.5382   4.4
18.24   2.85871   4.4
18.3   3.70294   4.4
18.36   5.43431   4.4
18.42   9.87416   4.4
18.48   26.9727   5.19352
18.54   57.652   7.59289
18.6   53.312   7.30151
18.66   48.0095   6.92889
18.72   18.18   4.4
18.78   12.1948   4.4
18.84   15.2817   4.4
18.9   36.2404   6.02
18.96   98.9701   9.94837
19.02   52.3318   7.23407
19.08   18.7134   4.4
19.14   12.5629   4.4
19.2   14.8413   4.4
19.26   32.1166   5.66715
19.32   52.325   7.2336
19.38   88.0227   9.38204
19.44   64.9025   8.05621
19.5   21.1654   4.60059
19.56   11.4765   4.4
19.62   11.261   4.4
19.68   23.862   4.88488
19.74   31.7859   5.6379
19.8   11.6222   4.4
19.86   6.27946   4.4
19.92   5.81203   4.4
19.98   9.05185   4.4
20   11.4652   4.4