File: xrd-UiO-67/standard/hxl.xye
3   0   4.4
3.06   0   4.4
3.12   0   4.4
3.18   0   4.4
3.24   0   4.4
3.3   0   4.4
3.36   0   4.4
3.42   0   4.4
3.48   0   4.4
3.54   0   4.4
3.6   0   4.4
3.66   0   4.4
3.72   0   4.4
3.78   0   4.4
3.84   0   4.4
3.9   8.28865   4.4
3.96   9.01016   4.4
4.02   9.83012   4.4
4.08   10.7672   4.4
4.14   11.845   4.4
4.2   13.0929   4.4
4.26   14.5488   4.4
4.32   16.2616   4.4
4.38   18.2953   4.4
4.44   20.7354   4.55361
4.5   23.6977   4.86803
4.56   27.3424   5.229
4.62   31.896   5.64766
4.68   37.6873   6.13899
4.74   45.2078   6.72367
4.8   55.2193   7.43097
4.86   68.9523   8.30375
4.92   88.4989   9.40738
4.98   117.647   10.8465
5.04   174.094   13.1945
5.1   254.398   15.9499
5.16   408.61   20.2141
5.22   764.929   27.6574
5.28   2004.12   44.7674
5.34   6861.63   82.835
5.4   6008.09   77.5119
5.46   1729.59   41.5884
5.52   707.211   26.5934
5.58   396.456   19.9112
5.64   260.745   16.1476
5.7   192.025   13.8573
5.76   155.378   12.4651
5.82   135.864   11.6561
5.88   127.906   11.3095
5.94   129.229   11.3679
6   139.929   11.8291
6.06   162.466   12.7462
6.12   203.013   14.2483
6.18   275.536   16.5993
6.24   414.077   20.3489
6.3   716.861   26.7743
6.36   1615.3   40.1908
6.42   5509.35   74.225
6.48   9456.95   97.2469
6.54   3033.43   55.0766
6.6   1050.95   32.4184
6.66   535.694   23.1451
6.72   326.149   18.0596
6.78   221.166   14.8717
6.84   153.98   12.4089
6.9   119.49   10.9312
6.96   99.7377   9.98688
7.02   92.4627   9.61575
7.08   104.513   10.2232
7.14   189.753   13.7751
7.2   488.155   22.0942
7.26   293.376   17.1282
7.32   104.272   10.2114
7.38   57.9686   7.61371
7.44   40.4987   6.36386
7.5   31.2869   5.59347
7.56   25.5709   5.05677
7.62   21.6205   4.64979
7.68   18.7006   4.4
7.74   16.4375   4.4
7.8   14.6233   4.4
7.86   14.4633   4.4
7.92   13.3325   4.4
7.98   3.29119   4.4
8.04   3.21295   4.4
8.1   3.20478   4.4
8.16   3.26074   4.4
8.22   3.37959   4.4
8.28   3.56435   4.4
8.34   3.82238   4.4
8.4   4.16623   4.4
8.46   4.61514   4.4
8.52   5.19785   4.4
8.58   5.9573   4.4
8.64   6.95911   4.4
8.7   7.85782   4.4
8.76   9.76182   4.4
8.82   12.5096   4.4
8.88   16.8752   4.4
8.94   25.754   5.07484
9   40.5801   6.37025
9.06   49.5594   7.03985
9.12   79.5767   8.92058
9.18   165.406   12.861
9.24   525.194   22.9171
9.3   1340.68   36.6153
9.36   556.059   23.5809
9.42   172.347   13.1281
9.48   81.2715   9.01507
9.54   47.4498   6.88838
9.6   31.1656   5.58262
9.66   22.185   4.7101
9.72   16.765   4.4
9.78   13.2881   4.4
9.84   10.9691   4.4
9.9   10.8351   4.4
9.96   9.90272   4.4
10.02   9.37371   4.4
10.08   9.18449   4.4
10.14   9.31737   4.4
10.2   9.79779   4.4
10.26   10.7049   4.4
10.32   12.2027   4.4
10.38   14.634   4.4
10.44   18.6308   4.4
10.5   25.7279   5.07226
10.56   40.0295   6.32688
10.62   76.5696   8.7504
10.68   225.141   15.0047
10.74   594.364   24.3796
10.8   270.13   16.4356
10.86   92.5473   9.62015
10.92   54.2177   7.36327
10.98   44.9395   6.70369
11.04   47.6444   6.90249
11.1   61.7848   7.86033
11.16   97.184   9.8582
11.22   198.915   14.1037
11.28   636.51   25.2291
11.34   1439.36   37.9389
11.4   539.922   23.2362
11.46   176.354   13.2798
11.52   88.5486   9.41003
11.58   55.5497   7.45317
11.64   40.8127   6.38848
11.7   36.2534   6.02108
11.76   44.3821   6.66199
11.82   41.3298   6.42883
11.88   40.3833   6.35479
11.94   58.6354   7.65737
12   128.98   11.3569
12.06   428.767   20.7067
12.12   478.157   21.8668
12.18   142.446   11.9351
12.24   56.5204   7.51801
12.3   31.7283   5.63279
12.36   20.9604   4.57825
12.42   15.4192   4.4
12.48   12.3328   4.4
12.54   10.6413   4.4
12.6   9.94919   4.4
12.66   10.2487   4.4
12.72   11.9994   4.4
12.78   16.8143   4.4
12.84   30.2745   5.50223
12.9   95.5733   9.77616
12.96   197.925   14.0686
13.02   70.8376   8.4165
13.08   24.1371   4.91296
13.14   12.4808   4.4
13.2   7.8711   4.4
13.26   5.5536   4.4
13.32   4.2503   4.4
13.38   3.44802   4.4
13.44   2.92883   4.4
13.5   2.58572   4.4
13.56   2.3624   4.4
13.62   1.69656   4.4
13.68   1.67623   4.4
13.74   1.72067   4.4
13.8   1.83404   4.4
13.86   2.17372   4.4
13.92   2.49351   4.4
13.98   2.98219   4.4
14.04   3.73199   4.4
14.1   4.97176   4.4
14.16   7.43232   4.4
14.22   12.6374   4.4
14.28   17.8864   4.4
14.34   35.2626   5.93823
14.4   113.365   10.6473
14.46   256.379   16.0118
14.52   95.8724   9.79145
14.58   31.0949   5.57628
14.64   15.432   4.4
14.7   9.62391   4.4
14.76   6.84529   4.4
14.82   5.48078   4.4
14.88   4.908   4.4
14.94   4.93724   4.4
15   5.64916   4.4
15.06   7.51224   4.4
15.12   12.1543   4.4
15.18   27.1697   5.21246
15.24   91.5115   9.56616
15.3   119.183   10.9171
15.36   37.4657   6.12092
15.42   18.3343   4.4
15.48   10.1065   4.4
15.54   5.96431   4.4
15.6   4.39071   4.4
15.66   3.71056   4.4
15.72   3.5253   4.4
15.78   3.94236   4.4
15.84   4.96907   4.4
15.9   8.43021   4.4
15.96   17.7545   4.4
16.02   18.1754   4.4
16.08   37.6778   6.13823
16.14   99.2467   9.96226
16.2   47.1209   6.86447
16.26   15.7448   4.4
16.32   8.98474   4.4
16.38   7.79148   4.4
16.44   10.8369   4.4
16.5   28.7696   5.36373
16.56   51.0947   7.14806
16.62   18.1502   4.4
16.68   7.39506   4.4
16.74   4.64102   4.4
16.8   3.83214   4.4
16.86   3.80692   4.4
16.92   4.41938   4.4
16.98   5.96654   4.4
17.04   9.51999   4.4
17.1   19.5179   4.41791
17.16   62.3144   7.89395
17.22   143.565   11.9818
17.28   54.6311   7.39129
17.34   17.7892   4.4
17.4   8.8947   4.4
17.46   5.57724   4.4
17.52   4.11135   4.4
17.58   3.71123   4.4
17.64   5.19941   4.4
17.7   10.1421   4.4
17.76   5.33687   4.4
17.82   2.93695   4.4
17.88   3.52373   4.4
17.94   3.63837   4.4
18   2.14627   4.4
18.06   1.90973   4.4
18.12   1.92642   4.4
18.18   2.10469   4.4
18.24   2.44014   4.4
18.3   3.05734   4.4
18.36   3.99011   4.4
18.42   5.65402   4.4
18.48   9.01181   4.4
18.54   17.6002   4.4
18.6   52.3634   7.23625
18.66   140.375   11.848
18.72   64.5506   8.03434
18.78   23.0674   4.80285
18.84   20.0871   4.48186
18.9   25.3626   5.03613
18.96   11.7768   4.4
19.02   7.41764   4.4
19.08   6.7926   4.4
19.14   7.57575   4.4
19.2   9.83002   4.4
19.26   14.8817   4.4
19.32   27.8877   5.28088
19.38   77.0101   8.77554
19.44   203.315   14.2588
19.5   192.584   13.8775
19.56   62.2429   7.88942
19.62   28.16   5.3066
19.68   25.7361   5.07307
19.74   54.5904   7.38853
19.8   55.4391   7.44574
19.86   18.5903   4.4
19.92   9.06044   4.4
19.98   6.83541   4.4
20   6.88956   4.4