File: xrd-UiO-67/standard/UiO.ASC
3 1016
3.06 968
3.12 884
3.18 833
3.24 811
3.3 835
3.36 764
3.42 781
3.48 768
3.54 748
3.6 715
3.66 714
3.72 725
3.78 653
3.84 722
3.9 667
3.96 673
4.02 643
4.08 632
4.14 628
4.2 631
4.26 607
4.32 607
4.38 593
4.44 581
4.5 649
4.56 605
4.62 597
4.68 625
4.74 620
4.8 680
4.86 707
4.92 698
4.98 791
5.04 829
5.1 969
5.16 1054
5.22 1157
5.28 1294
5.34 1419
5.4 1822
5.46 2232
5.52 2952
5.58 3777
5.64 5423
5.7 11741
5.76 12020
5.82 1562
5.88 1060
5.94 924
6 923
6.06 905
6.12 914
6.18 959
6.24 1072
6.3 1236
6.36 1418
6.42 1737
6.48 2183
6.54 2978
6.6 5485
6.66 3102
6.72 724
6.78 704
6.84 648
6.9 617
6.96 626
7.02 583
7.08 537
7.14 574
7.2 570
7.26 575
7.32 565
7.38 532
7.44 528
7.5 520
7.56 522
7.62 537
7.68 544
7.74 522
7.8 548
7.86 487
7.92 468
7.98 462
8.04 517
8.1 541
8.16 488
8.22 489
8.28 498
8.34 472
8.4 516
8.46 578
8.52 502
8.58 474
8.64 492
8.7 552
8.76 572
8.82 572
8.88 602
8.94 666
9 703
9.06 849
9.12 1059
9.18 1344
9.24 1678
9.3 2861
9.36 5034
9.42 1131
9.48 616
9.54 556
9.6 530
9.66 507
9.72 509
9.78 529
9.84 512
9.9 521
9.96 506
10.02 520
10.08 471
10.14 494
10.2 515
10.26 530
10.32 563
10.38 549
10.44 539
10.5 602
10.56 590
10.62 660
10.68 775
10.74 941
10.8 1230
10.86 1551
10.92 2718
10.98 3862
11.04 929
11.1 693
11.16 662
11.22 727
11.28 844
11.34 1035
11.4 1759
11.46 2852
11.52 823
11.58 563
11.64 498
11.7 513
11.76 530
11.82 514
11.88 500
11.94 543
12 549
12.06 499
12.12 541
12.18 522
12.24 474
12.3 523
12.36 504
12.42 488
12.48 514
12.54 457
12.6 468
12.66 518
12.72 516
12.78 516
12.84 514
12.9 520
12.96 521
13.02 594
13.08 614
13.14 700
13.2 1016
13.26 885
13.32 490
13.38 540
13.44 548
13.5 519
13.56 531
13.62 486
13.68 513
13.74 524
13.8 550
13.86 521
13.92 569
13.98 548
14.04 562
14.1 559
14.16 600
14.22 588
14.28 617
14.34 703
14.4 1054
14.46 789
14.52 561
14.58 532
14.64 551
14.7 606
14.76 671
14.82 651
14.88 578
14.94 535
15 557
15.06 530
15.12 550
15.18 603
15.24 583
15.3 561
15.36 579
15.42 567
15.48 511
15.54 542
15.6 580
15.66 568
15.72 573
15.78 584
15.84 580
15.9 574
15.96 595
16.02 595
16.08 605
16.14 610
16.2 666
16.26 622
16.32 627
16.38 642
16.44 645
16.5 606
16.56 657
16.62 652
16.68 634
16.74 638
16.8 676
16.86 744
16.92 841
16.98 708
17.04 747
17.1 758
17.16 986
17.22 1016
17.28 725
17.34 686
17.4 686
17.46 665
17.52 719
17.58 678
17.64 748
17.7 728
17.76 781
17.82 728
17.88 683
17.94 751
18 698
18.06 733
18.12 743
18.18 752
18.24 780
18.3 778
18.36 757
18.42 761
18.48 815
18.54 742
18.6 750
18.66 784
18.72 803
18.78 770
18.84 820
18.9 837
18.96 848
19.02 765
19.08 807
19.14 883
19.2 843
19.26 866
19.32 865
19.38 872
19.44 998
19.5 1205
19.56 1736
19.62 1708
19.68 1133
19.74 1152
19.8 1594
19.86 2921
19.92 1907
19.98 956
20 980