File: xrd-UiO-67/standard/uio67.xye
3   0   4.4
3.06   0   4.4
3.12   0   4.4
3.18   0   4.4
3.24   0   4.4
3.3   0   4.4
3.36   0   4.4
3.42   0   4.4
3.48   0   4.4
3.54   0   4.4
3.6   0   4.4
3.66   0   4.4
3.72   0   4.4
3.78   0   4.4
3.84   0   4.4
3.9   0   4.4
3.96   0   4.4
4.02   0   4.4
4.08   0   4.4
4.14   0   4.4
4.2   0   4.4
4.26   10.1211   4.4
4.32   11.0122   4.4
4.38   12.0263   4.4
4.44   13.1871   4.4
4.5   14.5244   4.4
4.56   16.0757   4.4
4.62   17.8894   4.4
4.68   20.028   4.47526
4.74   22.5739   4.7512
4.8   25.6374   5.06334
4.86   29.3689   5.41931
4.92   33.9773   5.82901
4.98   39.76   6.30556
5.04   47.1519   6.86673
5.1   56.809   7.53718
5.16   72.318   8.504
5.22   90.4655   9.51134
5.28   116.513   10.7941
5.34   155.815   12.4826
5.4   219.12   14.8027
5.46   330.602   18.1825
5.52   553.742   23.5317
5.58   1111.18   33.3344
5.64   3305.58   57.4941
5.7   9911.06   99.5543
5.76   5238.62   72.3783
5.82   1547.86   39.3429
5.88   694.479   26.353
5.94   399.077   19.9769
6   262.037   16.1875
6.06   189.45   13.7641
6.12   148.495   12.1859
6.18   125.906   11.2208
6.24   116.488   10.7929
6.3   119.917   10.9507
6.36   141.733   11.9052
6.42   201.667   14.201
6.48   383.147   19.5741
6.54   1179.71   34.3468
6.6   2558.73   50.5839
6.66   945.446   30.7481
6.72   317.724   17.8248
6.78   162.29   12.7393
6.84   101.069   10.0533
6.9   70.283   8.3835
6.96   52.5162   7.24681
7.02   41.2345   6.42141
7.08   33.5538   5.79256
7.14   28.0419   5.29546
7.2   14.3199   4.4
7.26   11.8664   4.4
7.32   9.99264   4.4
7.38   8.5295   4.4
7.44   7.36535   4.4
7.5   6.42402   4.4
7.56   5.65212   4.4
7.62   5.01133   4.4
7.68   4.47357   4.4
7.74   4.01789   4.4
7.8   3.62842   4.4
7.86   3.46942   4.4
7.92   3.19368   4.4
7.98   2.95694   4.4
8.04   2.75362   4.4
8.1   0.251857   4.4
8.16   0.27826   4.4
8.22   0.309041   4.4
8.28   0.345222   4.4
8.34   0.388144   4.4
8.4   0.43959   4.4
8.46   0.501972   4.4
8.52   0.578621   4.4
8.58   0.674236   4.4
8.64   0.79562   4.4
8.7   0.952916   4.4
8.76   1.16178   4.4
8.82   1.4474   4.4
8.88   1.85236   4.4
8.94   2.4533   4.4
9   3.3992   4.4
9.06   5.01082   4.4
9.12   8.08042   4.4
9.18   15.0339   4.4
9.24   38.1245   6.1745
9.3   133.32   11.5464
9.36   142.15   11.9227
9.42   41.0053   6.40354
9.48   15.9911   4.4
9.54   8.638   4.4
9.6   5.45583   4.4
9.66   3.81507   4.4
9.72   2.87438   4.4
9.78   2.29716   4.4
9.84   1.92894   4.4
9.9   1.69167   4.4
9.96   1.54329   4.4
10.02   2.53084   4.4
10.08   2.59798   4.4
10.14   2.72669   4.4
10.2   2.91984   4.4
10.26   3.18645   4.4
10.32   3.54298   4.4
10.38   4.0166   4.4
10.44   4.65164   4.4
10.5   5.52233   4.4
10.56   6.75993   4.4
10.62   8.61496   4.4
10.68   11.619   4.4
10.74   17.0759   4.4
10.8   29.0222   5.38722
10.86   68.3583   8.26791
10.92   221.878   14.8956
10.98   203.536   14.2666
11.04   68.7143   8.28941
11.1   40.6043   6.37215
11.16   39.225   6.26299
11.22   51.2373   7.15802
11.28   85.7247   9.25877
11.34   202.96   14.2464
11.4   701.868   26.4928
11.46   847.468   29.1113
11.52   249.241   15.7874
11.58   93.745   9.6822
11.64   49.6012   7.04281
11.7   30.6164   5.53321
11.76   21.0338   4.58626
11.82   15.3106   4.4
11.88   11.6962   4.4
11.94   9.27439   4.4
12   7.57856   4.4
12.06   6.35143   4.4
12.12   5.44213   4.4
12.18   4.75798   4.4
12.24   4.24016   4.4
12.3   3.85066   4.4
12.36   3.56519   4.4
12.42   3.10869   4.4
12.48   3.01553   4.4
12.54   3.00367   4.4
12.6   3.08261   4.4
12.66   3.27341   4.4
12.72   3.6156   4.4
12.78   4.1816   4.4
12.84   5.10861   4.4
12.9   5.67534   4.4
12.96   8.58939   4.4
13.02   14.4061   4.4
13.08   28.8521   5.37142
13.14   85.2553   9.23338
13.2   260.304   16.1339
13.26   142.714   11.9463
13.32   41.7764   6.46346
13.38   18.5306   4.4
13.44   10.4985   4.4
13.5   6.7493   4.4
13.56   4.71887   4.4
13.62   3.5056   4.4
13.68   2.72922   4.4
13.74   2.20804   4.4
13.8   1.84701   4.4
13.86   1.5931   4.4
13.92   1.41554   4.4
13.98   1.29655   4.4
14.04   1.22695   4.4
14.1   1.20481   4.4
14.16   1.23714   4.4
14.22   1.34883   4.4
14.28   1.62741   4.4
14.34   2.54913   4.4
14.4   4.6635   4.4
14.46   3.518   4.4
14.52   3.54303   4.4
14.58   5.14646   4.4
14.64   9.43887   4.4
14.7   25.302   5.03011
14.76   83.5188   9.13886
14.82   58.3834   7.6409
14.88   16.7448   4.4
14.94   7.04313   4.4
15   3.90024   4.4
15.06   2.468   4.4
15.12   1.7025   4.4
15.18   1.24833   4.4
15.24   0.958324   4.4
15.3   0.763048   4.4
15.36   0.626472   4.4
15.42   0.528526   4.4
15.48   0.457478   4.4
15.54   0.406324   4.4
15.6   0.371017   4.4
15.66   0.349637   4.4
15.72   0.456923   4.4
15.78   0.475865   4.4
15.84   0.519025   4.4
15.9   0.59876   4.4
15.96   0.756495   4.4
16.02   1.08787   4.4
16.08   1.97393   4.4
16.14   5.67467   4.4
16.2   13.405   4.4
16.26   5.45926   4.4
16.32   1.94554   4.4
16.38   1.14403   4.4
16.44   0.885653   4.4
16.5   0.809261   4.4
16.56   0.825569   4.4
16.62   0.909551   4.4
16.68   1.0625   4.4
16.74   1.30516   4.4
16.8   1.68454   4.4
16.86   2.29795   4.4
16.92   3.35964   4.4
16.98   5.40525   4.4
17.04   10.1012   4.4
17.1   26.0771   5.10658
17.16   90.5747   9.51708
17.22   87.8518   9.37293
17.28   25.1913   5.01909
17.34   9.88177   4.4
17.4   5.30887   4.4
17.46   3.29778   4.4
17.52   2.24437   4.4
17.58   1.6274   4.4
17.64   1.23644   4.4
17.7   0.961963   4.4
17.76   0.778759   4.4
17.82   0.646144   4.4
17.88   0.547839   4.4
17.94   0.47386   4.4
18   0.417915   4.4
18.06   0.376045   4.4
18.12   0.345901   4.4
18.18   0.464169   4.4
18.24   0.468117   4.4
18.3   0.486803   4.4
18.36   0.52561   4.4
18.42   0.760802   4.4
18.48   0.904928   4.4
18.54   1.18262   4.4
18.6   1.85718   4.4
18.66   4.48308   4.4
18.72   11.337   4.4
18.78   5.72698   4.4
18.84   2.31665   4.4
18.9   1.62461   4.4
18.96   1.49226   4.4
19.02   1.56195   4.4
19.08   1.76377   4.4
19.14   2.10008   4.4
19.2   2.6184   4.4
19.26   3.42849   4.4
19.32   4.77104   4.4
19.38   7.2324   4.4
19.44   12.5695   4.4
19.5   29.4452   5.42634
19.56   97.8619   9.89252
19.62   108.912   10.4361
19.68   38.7376   6.22395
19.74   28.8046   5.36699
19.8   56.7605   7.53396
19.86   161.5   12.7083
19.92   93.1193   9.64983
19.98   28.1841   5.30887
20   20.7799   4.55849