File: xrd-UiO-67/pxrddata/105-3.ASC
3 1050
3.06 811
3.12 688
3.18 640
3.24 619
3.3 573
3.36 542
3.42 531
3.48 533
3.54 515
3.6 528
3.66 511
3.72 536
3.78 467
3.84 468
3.9 510
3.96 510
4.02 469
4.08 504
4.14 477
4.2 457
4.26 455
4.32 433
4.38 468
4.44 440
4.5 425
4.56 452
4.62 450
4.68 463
4.74 445
4.8 450
4.86 467
4.92 524
4.98 477
5.04 523
5.1 475
5.16 471
5.22 503
5.28 510
5.34 502
5.4 527
5.46 558
5.52 622
5.58 561
5.64 594
5.7 610
5.76 686
5.82 771
5.88 890
5.94 629
6 489
6.06 462
6.12 427
6.18 451
6.24 438
6.3 401
6.36 447
6.42 460
6.48 397
6.54 383
6.6 407
6.66 466
6.72 454
6.78 445
6.84 450
6.9 428
6.96 383
7.02 408
7.08 398
7.14 407
7.2 399
7.26 393
7.32 412
7.38 386
7.44 378
7.5 408
7.56 401
7.62 399
7.68 403
7.74 408
7.8 397
7.86 387
7.92 404
7.98 377
8.04 360
8.1 389
8.16 412
8.22 431
8.28 427
8.34 368
8.4 396
8.46 392
8.52 388
8.58 423
8.64 431
8.7 431
8.76 376
8.82 403
8.88 425
8.94 393
9 412
9.06 446
9.12 436
9.18 458
9.24 425
9.3 425
9.36 481
9.42 536
9.48 519
9.54 402
9.6 396
9.66 407
9.72 389
9.78 411
9.84 403
9.9 412
9.96 392
10.02 406
10.08 406
10.14 419
10.2 418
10.26 486
10.32 480
10.38 413
10.44 401
10.5 402
10.56 413
10.62 459
10.68 445
10.74 423
10.8 447
10.86 423
10.92 489
10.98 486
11.04 479
11.1 514
11.16 422
11.22 401
11.28 418
11.34 415
11.4 453
11.46 461
11.52 437
11.58 510
11.64 477
11.7 427
11.76 456
11.82 424
11.88 423
11.94 397
12 462
12.06 441
12.12 436
12.18 454
12.24 394
12.3 426
12.36 423
12.42 422
12.48 441
12.54 454
12.6 421
12.66 468
12.72 457
12.78 463
12.84 422
12.9 435
12.96 467
13.02 431
13.08 479
13.14 479
13.2 450
13.26 450
13.32 434
13.38 464
13.44 453
13.5 510
13.56 452
13.62 489
13.68 466
13.74 516
13.8 481
13.86 480
13.92 457
13.98 506
14.04 458
14.1 446
14.16 486
14.22 475
14.28 515
14.34 487
14.4 538
14.46 525
14.52 542
14.58 482
14.64 538
14.7 519
14.76 522
14.82 533
14.88 488
14.94 524
15 523
15.06 532
15.12 525
15.18 552
15.24 569
15.3 537
15.36 547
15.42 554
15.48 574
15.54 573
15.6 553
15.66 526
15.72 575
15.78 533
15.84 608
15.9 601
15.96 645
16.02 601
16.08 583
16.14 604
16.2 630
16.26 630
16.32 605
16.38 604
16.44 646
16.5 630
16.56 639
16.62 640
16.68 673
16.74 639
16.8 647
16.86 677
16.92 691
16.98 680
17.04 689
17.1 767
17.16 726
17.22 724
17.28 721
17.34 719
17.4 800
17.46 713
17.52 768
17.58 714
17.64 786
17.7 746
17.76 772
17.82 825
17.88 798
17.94 821
18 820
18.06 843
18.12 809
18.18 830
18.24 843
18.3 818
18.36 858
18.42 880
18.48 766
18.54 840
18.6 913
18.66 869
18.72 902
18.78 929
18.84 856
18.9 935
18.96 959
19.02 987
19.08 976
19.14 1092
19.2 981
19.26 997
19.32 1021
19.38 1000
19.44 1017
19.5 1041
19.56 1091
19.62 1110
19.68 1098
19.74 1045
19.8 1081
19.86 1070
19.92 1057
19.98 1117
20 1137