File: xrd-UiO-67/pxrddata/106-4.ASC
3 1865
3.06 1570
3.12 1224
3.18 1167
3.24 1062
3.3 979
3.36 941
3.42 937
3.48 850
3.54 813
3.6 807
3.66 782
3.72 724
3.78 764
3.84 744
3.9 708
3.96 760
4.02 648
4.08 623
4.14 630
4.2 682
4.26 630
4.32 632
4.38 623
4.44 603
4.5 580
4.56 565
4.62 568
4.68 547
4.74 597
4.8 550
4.86 572
4.92 590
4.98 522
5.04 562
5.1 533
5.16 597
5.22 590
5.28 539
5.34 545
5.4 543
5.46 500
5.52 518
5.58 549
5.64 591
5.7 550
5.76 506
5.82 553
5.88 571
5.94 520
6 504
6.06 477
6.12 531
6.18 550
6.24 539
6.3 520
6.36 518
6.42 539
6.48 538
6.54 511
6.6 538
6.66 514
6.72 528
6.78 545
6.84 554
6.9 519
6.96 528
7.02 516
7.08 515
7.14 535
7.2 506
7.26 502
7.32 513
7.38 510
7.44 588
7.5 562
7.56 504
7.62 569
7.68 532
7.74 527
7.8 499
7.86 492
7.92 509
7.98 547
8.04 534
8.1 521
8.16 524
8.22 487
8.28 531
8.34 488
8.4 491
8.46 528
8.52 519
8.58 536
8.64 492
8.7 485
8.76 523
8.82 523
8.88 482
8.94 532
9 512
9.06 504
9.12 514
9.18 499
9.24 482
9.3 478
9.36 503
9.42 518
9.48 483
9.54 508
9.6 501
9.66 506
9.72 491
9.78 518
9.84 474
9.9 503
9.96 457
10.02 501
10.08 460
10.14 490
10.2 463
10.26 462
10.32 497
10.38 477
10.44 494
10.5 522
10.56 493
10.62 504
10.68 486
10.74 448
10.8 488
10.86 446
10.92 462
10.98 511
11.04 499
11.1 511
11.16 495
11.22 486
11.28 496
11.34 485
11.4 470
11.46 487
11.52 509
11.58 502
11.64 457
11.7 480
11.76 502
11.82 472
11.88 500
11.94 508
12 497
12.06 463
12.12 504
12.18 456
12.24 473
12.3 526
12.36 451
12.42 491
12.48 460
12.54 484
12.6 466
12.66 467
12.72 538
12.78 483
12.84 530
12.9 519
12.96 494
13.02 477
13.08 527
13.14 487
13.2 486
13.26 512
13.32 533
13.38 508
13.44 531
13.5 503
13.56 474
13.62 523
13.68 452
13.74 528
13.8 532
13.86 505
13.92 471
13.98 515
14.04 521
14.1 513
14.16 548
14.22 544
14.28 530
14.34 532
14.4 522
14.46 554
14.52 493
14.58 577
14.64 590
14.7 555
14.76 578
14.82 523
14.88 597
14.94 618
15 582
15.06 585
15.12 563
15.18 580
15.24 584
15.3 546
15.36 571
15.42 574
15.48 577
15.54 590
15.6 581
15.66 649
15.72 610
15.78 607
15.84 588
15.9 621
15.96 607
16.02 613
16.08 626
16.14 641
16.2 646
16.26 635
16.32 649
16.38 657
16.44 639
16.5 688
16.56 691
16.62 682
16.68 660
16.74 687
16.8 705
16.86 763
16.92 758
16.98 896
17.04 918
17.1 823
17.16 738
17.22 772
17.28 722
17.34 765
17.4 729
17.46 748
17.52 746
17.58 767
17.64 782
17.7 768
17.76 813
17.82 777
17.88 802
17.94 820
18 847
18.06 839
18.12 875
18.18 782
18.24 861
18.3 851
18.36 881
18.42 878
18.48 889
18.54 885
18.6 874
18.66 875
18.72 845
18.78 970
18.84 909
18.9 884
18.96 936
19.02 934
19.08 929
19.14 937
19.2 946
19.26 985
19.32 1019
19.38 988
19.44 1026
19.5 982
19.56 952
19.62 946
19.68 1001
19.74 1064
19.8 981
19.86 989
19.92 1053
19.98 1039
20 1023