File: xrd-UiO-67/pxrddata/106-5.ASC
3 1869
3.06 1379
3.12 1215
3.18 1067
3.24 1022
3.3 1027
3.36 949
3.42 903
3.48 911
3.54 821
3.6 866
3.66 836
3.72 792
3.78 743
3.84 774
3.9 766
3.96 766
4.02 746
4.08 746
4.14 733
4.2 679
4.26 677
4.32 677
4.38 743
4.44 668
4.5 689
4.56 688
4.62 640
4.68 666
4.74 658
4.8 703
4.86 597
4.92 677
4.98 624
5.04 709
5.1 675
5.16 657
5.22 672
5.28 658
5.34 705
5.4 613
5.46 667
5.52 707
5.58 685
5.64 653
5.7 651
5.76 631
5.82 666
5.88 644
5.94 683
6 695
6.06 637
6.12 637
6.18 676
6.24 697
6.3 634
6.36 702
6.42 683
6.48 672
6.54 667
6.6 712
6.66 682
6.72 652
6.78 652
6.84 646
6.9 677
6.96 636
7.02 663
7.08 718
7.14 666
7.2 672
7.26 642
7.32 667
7.38 662
7.44 636
7.5 647
7.56 659
7.62 645
7.68 668
7.74 663
7.8 652
7.86 662
7.92 659
7.98 715
8.04 679
8.1 656
8.16 637
8.22 666
8.28 674
8.34 632
8.4 649
8.46 694
8.52 670
8.58 688
8.64 641
8.7 682
8.76 658
8.82 647
8.88 690
8.94 638
9 651
9.06 677
9.12 662
9.18 637
9.24 615
9.3 677
9.36 654
9.42 686
9.48 680
9.54 671
9.6 641
9.66 660
9.72 634
9.78 684
9.84 687
9.9 660
9.96 661
10.02 603
10.08 654
10.14 659
10.2 684
10.26 659
10.32 614
10.38 636
10.44 642
10.5 643
10.56 654
10.62 667
10.68 629
10.74 657
10.8 637
10.86 650
10.92 690
10.98 679
11.04 707
11.1 708
11.16 678
11.22 690
11.28 709
11.34 652
11.4 661
11.46 689
11.52 697
11.58 663
11.64 700
11.7 680
11.76 659
11.82 667
11.88 723
11.94 688
12 692
12.06 686
12.12 676
12.18 664
12.24 670
12.3 676
12.36 740
12.42 705
12.48 694
12.54 701
12.6 679
12.66 658
12.72 673
12.78 718
12.84 693
12.9 721
12.96 666
13.02 720
13.08 694
13.14 755
13.2 678
13.26 685
13.32 725
13.38 722
13.44 679
13.5 724
13.56 729
13.62 742
13.68 714
13.74 788
13.8 768
13.86 741
13.92 733
13.98 742
14.04 763
14.1 750
14.16 803
14.22 796
14.28 798
14.34 746
14.4 841
14.46 773
14.52 737
14.58 802
14.64 745
14.7 830
14.76 794
14.82 826
14.88 746
14.94 807
15 830
15.06 810
15.12 870
15.18 864
15.24 828
15.3 866
15.36 813
15.42 864
15.48 913
15.54 894
15.6 884
15.66 869
15.72 948
15.78 891
15.84 984
15.9 884
15.96 919
16.02 948
16.08 931
16.14 954
16.2 919
16.26 1011
16.32 930
16.38 952
16.44 969
16.5 955
16.56 955
16.62 1021
16.68 1031
16.74 1056
16.8 1042
16.86 1066
16.92 1125
16.98 1239
17.04 1377
17.1 1269
17.16 1169
17.22 1132
17.28 1079
17.34 1129
17.4 1161
17.46 1170
17.52 1172
17.58 1151
17.64 1215
17.7 1142
17.76 1198
17.82 1225
17.88 1184
17.94 1270
18 1269
18.06 1232
18.12 1333
18.18 1248
18.24 1307
18.3 1270
18.36 1263
18.42 1364
18.48 1382
18.54 1356
18.6 1384
18.66 1321
18.72 1431
18.78 1389
18.84 1373
18.9 1423
18.96 1409
19.02 1464
19.08 1414
19.14 1512
19.2 1459
19.26 1494
19.32 1479
19.38 1462
19.44 1576
19.5 1587
19.56 1545
19.62 1555
19.68 1562
19.74 1599
19.8 1535
19.86 1616
19.92 1632
19.98 1614
20 1630