File: xrd-UiO-67/pxrddata/106-1.ASC
3 1252
3.06 965
3.12 908
3.18 751
3.24 715
3.3 714
3.36 680
3.42 686
3.48 619
3.54 641
3.6 641
3.66 623
3.72 589
3.78 580
3.84 549
3.9 563
3.96 509
4.02 542
4.08 534
4.14 536
4.2 532
4.26 523
4.32 498
4.38 509
4.44 495
4.5 506
4.56 503
4.62 560
4.68 502
4.74 509
4.8 491
4.86 572
4.92 498
4.98 484
5.04 548
5.1 536
5.16 517
5.22 546
5.28 516
5.34 560
5.4 586
5.46 608
5.52 645
5.58 552
5.64 524
5.7 536
5.76 507
5.82 489
5.88 492
5.94 461
6 471
6.06 419
6.12 444
6.18 409
6.24 429
6.3 388
6.36 439
6.42 385
6.48 398
6.54 410
6.6 411
6.66 426
6.72 428
6.78 424
6.84 404
6.9 415
6.96 394
7.02 417
7.08 415
7.14 421
7.2 423
7.26 420
7.32 407
7.38 402
7.44 432
7.5 393
7.56 417
7.62 382
7.68 455
7.74 375
7.8 401
7.86 425
7.92 400
7.98 377
8.04 416
8.1 380
8.16 410
8.22 408
8.28 442
8.34 406
8.4 410
8.46 437
8.52 404
8.58 403
8.64 405
8.7 405
8.76 384
8.82 401
8.88 398
8.94 397
9 411
9.06 393
9.12 441
9.18 398
9.24 413
9.3 451
9.36 469
9.42 493
9.48 475
9.54 416
9.6 424
9.66 396
9.72 462
9.78 415
9.84 418
9.9 415
9.96 392
10.02 396
10.08 439
10.14 426
10.2 428
10.26 426
10.32 459
10.38 453
10.44 394
10.5 415
10.56 421
10.62 449
10.68 420
10.74 436
10.8 413
10.86 438
10.92 438
10.98 424
11.04 455
11.1 410
11.16 401
11.22 419
11.28 429
11.34 430
11.4 412
11.46 424
11.52 432
11.58 440
11.64 421
11.7 452
11.76 412
11.82 405
11.88 475
11.94 406
12 405
12.06 424
12.12 446
12.18 436
12.24 451
12.3 424
12.36 441
12.42 409
12.48 431
12.54 426
12.6 494
12.66 464
12.72 449
12.78 465
12.84 444
12.9 429
12.96 468
13.02 440
13.08 420
13.14 427
13.2 401
13.26 447
13.32 444
13.38 477
13.44 423
13.5 437
13.56 447
13.62 479
13.68 467
13.74 463
13.8 472
13.86 447
13.92 476
13.98 450
14.04 460
14.1 506
14.16 473
14.22 521
14.28 495
14.34 467
14.4 498
14.46 472
14.52 486
14.58 494
14.64 502
14.7 493
14.76 493
14.82 504
14.88 517
14.94 502
15 543
15.06 529
15.12 560
15.18 541
15.24 551
15.3 558
15.36 506
15.42 539
15.48 517
15.54 545
15.6 498
15.66 555
15.72 517
15.78 527
15.84 579
15.9 595
15.96 579
16.02 577
16.08 584
16.14 558
16.2 599
16.26 626
16.32 629
16.38 590
16.44 610
16.5 661
16.56 587
16.62 640
16.68 625
16.74 665
16.8 645
16.86 703
16.92 700
16.98 719
17.04 864
17.1 834
17.16 790
17.22 693
17.28 715
17.34 712
17.4 753
17.46 699
17.52 719
17.58 687
17.64 758
17.7 719
17.76 757
17.82 730
17.88 788
17.94 795
18 774
18.06 780
18.12 771
18.18 809
18.24 842
18.3 847
18.36 821
18.42 792
18.48 801
18.54 777
18.6 854
18.66 875
18.72 874
18.78 906
18.84 931
18.9 913
18.96 914
19.02 925
19.08 927
19.14 943
19.2 991
19.26 965
19.32 1016
19.38 1016
19.44 988
19.5 1049
19.56 988
19.62 1026
19.68 970
19.74 1069
19.8 1010
19.86 1006
19.92 1006
19.98 1107
20 1046