File: xrd-UiO-67/pxrddata/107-3.ASC
3 1754
3.06 1247
3.12 1046
3.18 960
3.24 905
3.3 835
3.36 826
3.42 802
3.48 762
3.54 675
3.6 737
3.66 669
3.72 708
3.78 668
3.84 733
3.9 663
3.96 660
4.02 679
4.08 649
4.14 603
4.2 612
4.26 628
4.32 606
4.38 592
4.44 589
4.5 585
4.56 603
4.62 587
4.68 601
4.74 612
4.8 614
4.86 672
4.92 645
4.98 659
5.04 651
5.1 732
5.16 791
5.22 802
5.28 933
5.34 1019
5.4 1157
5.46 1230
5.52 1217
5.58 1244
5.64 1318
5.7 1428
5.76 1591
5.82 1608
5.88 1308
5.94 1055
6 788
6.06 768
6.12 744
6.18 668
6.24 652
6.3 663
6.36 634
6.42 657
6.48 629
6.54 662
6.6 696
6.66 694
6.72 650
6.78 605
6.84 522
6.9 516
6.96 522
7.02 538
7.08 544
7.14 550
7.2 533
7.26 494
7.32 510
7.38 517
7.44 518
7.5 494
7.56 498
7.62 471
7.68 509
7.74 477
7.8 522
7.86 498
7.92 550
7.98 493
8.04 535
8.1 492
8.16 502
8.22 520
8.28 520
8.34 533
8.4 514
8.46 485
8.52 466
8.58 511
8.64 522
8.7 526
8.76 544
8.82 547
8.88 534
8.94 550
9 572
9.06 592
9.12 612
9.18 635
9.24 720
9.3 747
9.36 858
9.42 902
9.48 735
9.54 667
9.6 599
9.66 556
9.72 600
9.78 525
9.84 548
9.9 575
9.96 544
10.02 581
10.08 614
10.14 596
10.2 590
10.26 562
10.32 570
10.38 586
10.44 540
10.5 524
10.56 587
10.62 567
10.68 627
10.74 658
10.8 671
10.86 721
10.92 753
10.98 788
11.04 771
11.1 663
11.16 619
11.22 607
11.28 602
11.34 600
11.4 570
11.46 603
11.52 620
11.58 604
11.64 589
11.7 588
11.76 544
11.82 552
11.88 554
11.94 561
12 517
12.06 544
12.12 552
12.18 531
12.24 576
12.3 563
12.36 550
12.42 534
12.48 553
12.54 535
12.6 553
12.66 491
12.72 496
12.78 553
12.84 537
12.9 565
12.96 532
13.02 562
13.08 529
13.14 563
13.2 589
13.26 549
13.32 577
13.38 538
13.44 607
13.5 538
13.56 552
13.62 571
13.68 606
13.74 557
13.8 570
13.86 555
13.92 599
13.98 571
14.04 603
14.1 569
14.16 645
14.22 570
14.28 621
14.34 613
14.4 658
14.46 636
14.52 667
14.58 629
14.64 659
14.7 653
14.76 638
14.82 679
14.88 640
14.94 662
15 652
15.06 661
15.12 652
15.18 640
15.24 641
15.3 667
15.36 642
15.42 686
15.48 698
15.54 643
15.6 695
15.66 695
15.72 667
15.78 719
15.84 745
15.9 709
15.96 696
16.02 655
16.08 703
16.14 741
16.2 718
16.26 781
16.32 725
16.38 762
16.44 767
16.5 742
16.56 727
16.62 769
16.68 751
16.74 735
16.8 832
16.86 758
16.92 831
16.98 824
17.04 816
17.1 795
17.16 812
17.22 821
17.28 807
17.34 893
17.4 863
17.46 816
17.52 872
17.58 898
17.64 907
17.7 888
17.76 914
17.82 893
17.88 898
17.94 958
18 899
18.06 959
18.12 971
18.18 959
18.24 980
18.3 946
18.36 1000
18.42 1011
18.48 1016
18.54 986
18.6 1011
18.66 1026
18.72 1088
18.78 1094
18.84 1085
18.9 1090
18.96 1137
19.02 1150
19.08 1154
19.14 1137
19.2 1103
19.26 1166
19.32 1121
19.38 1167
19.44 1249
19.5 1308
19.56 1276
19.62 1199
19.68 1320
19.74 1256
19.8 1228
19.86 1197
19.92 1296
19.98 1252
20 1187