File: xrd-UiO-67/pxrddata/107-1.ASC
3 1804
3.06 1473
3.12 1216
3.18 1183
3.24 1109
3.3 1124
3.36 1035
3.42 1022
3.48 1072
3.54 1029
3.6 1075
3.66 1007
3.72 1091
3.78 1032
3.84 1123
3.9 1091
3.96 1177
4.02 1192
4.08 1410
4.14 1292
4.2 1044
4.26 1030
4.32 973
4.38 940
4.44 938
4.5 980
4.56 996
4.62 1005
4.68 948
4.74 1096
4.8 1033
4.86 1153
4.92 1218
4.98 1302
5.04 1366
5.1 1463
5.16 1717
5.22 1844
5.28 2171
5.34 2571
5.4 3175
5.46 3065
5.52 2950
5.58 3164
5.64 3758
5.7 4675
5.76 5812
5.82 4765
5.88 2470
5.94 1491
6 1279
6.06 1077
6.12 1115
6.18 1062
6.24 992
6.3 1001
6.36 1068
6.42 1040
6.48 1072
6.54 1135
6.6 1227
6.66 1367
6.72 1306
6.78 1226
6.84 964
6.9 833
6.96 732
7.02 705
7.08 675
7.14 676
7.2 716
7.26 718
7.32 668
7.38 699
7.44 674
7.5 675
7.56 740
7.62 694
7.68 713
7.74 688
7.8 682
7.86 646
7.92 644
7.98 708
8.04 715
8.1 700
8.16 711
8.22 679
8.28 667
8.34 660
8.4 700
8.46 681
8.52 615
8.58 667
8.64 627
8.7 662
8.76 650
8.82 685
8.88 700
8.94 717
9 825
9.06 822
9.12 961
9.18 1033
9.24 1316
9.3 1585
9.36 1678
9.42 1268
9.48 869
9.54 778
9.6 755
9.66 742
9.72 674
9.78 676
9.84 702
9.9 675
9.96 722
10.02 739
10.08 777
10.14 849
10.2 800
10.26 756
10.32 706
10.38 677
10.44 652
10.5 663
10.56 732
10.62 736
10.68 803
10.74 949
10.8 979
10.86 1006
10.92 1209
10.98 1217
11.04 952
11.1 800
11.16 767
11.22 719
11.28 679
11.34 714
11.4 755
11.46 881
11.52 855
11.58 801
11.64 651
11.7 614
11.76 627
11.82 572
11.88 622
11.94 635
12 628
12.06 617
12.12 631
12.18 695
12.24 658
12.3 629
12.36 637
12.42 622
12.48 616
12.54 559
12.6 623
12.66 590
12.72 587
12.78 568
12.84 576
12.9 554
12.96 580
13.02 564
13.08 565
13.14 572
13.2 607
13.26 628
13.32 613
13.38 618
13.44 611
13.5 603
13.56 611
13.62 567
13.68 578
13.74 592
13.8 597
13.86 585
13.92 618
13.98 570
14.04 583
14.1 561
14.16 593
14.22 594
14.28 591
14.34 636
14.4 660
14.46 641
14.52 621
14.58 613
14.64 608
14.7 609
14.76 633
14.82 617
14.88 632
14.94 553
15 563
15.06 589
15.12 606
15.18 634
15.24 624
15.3 595
15.36 626
15.42 624
15.48 617
15.54 567
15.6 613
15.66 650
15.72 646
15.78 671
15.84 581
15.9 645
15.96 613
16.02 677
16.08 656
16.14 665
16.2 675
16.26 665
16.32 714
16.38 715
16.44 632
16.5 705
16.56 662
16.62 741
16.68 719
16.74 647
16.8 725
16.86 693
16.92 742
16.98 741
17.04 727
17.1 719
17.16 710
17.22 797
17.28 760
17.34 773
17.4 756
17.46 760
17.52 807
17.58 756
17.64 802
17.7 770
17.76 827
17.82 784
17.88 803
17.94 785
18 772
18.06 840
18.12 808
18.18 833
18.24 865
18.3 852
18.36 806
18.42 853
18.48 900
18.54 880
18.6 892
18.66 915
18.72 923
18.78 953
18.84 905
18.9 975
18.96 972
19.02 959
19.08 1042
19.14 1008
19.2 989
19.26 979
19.32 974
19.38 1004
19.44 999
19.5 1060
19.56 1071
19.62 1041
19.68 1062
19.74 967
19.8 1079
19.86 1093
19.92 1069
19.98 1044
20 1069