File: xrd-UiO-67/pxrddata/107-5.ASC
3 2142
3.06 1720
3.12 1440
3.18 1335
3.24 1350
3.3 1199
3.36 1194
3.42 1156
3.48 1222
3.54 1133
3.6 1145
3.66 1076
3.72 1062
3.78 1079
3.84 1059
3.9 1105
3.96 1103
4.02 1121
4.08 1038
4.14 1119
4.2 1068
4.26 1112
4.32 1102
4.38 1115
4.44 1104
4.5 1150
4.56 1159
4.62 1149
4.68 1147
4.74 1115
4.8 1160
4.86 1168
4.92 1171
4.98 1189
5.04 1249
5.1 1240
5.16 1234
5.22 1328
5.28 1359
5.34 1391
5.4 1382
5.46 1357
5.52 1398
5.58 1388
5.64 1413
5.7 1421
5.76 1358
5.82 1344
5.88 1209
5.94 1117
6 1145
6.06 1006
6.12 960
6.18 943
6.24 917
6.3 851
6.36 828
6.42 805
6.48 740
6.54 758
6.6 754
6.66 725
6.72 691
6.78 725
6.84 638
6.9 638
6.96 658
7.02 614
7.08 692
7.14 605
7.2 642
7.26 593
7.32 609
7.38 602
7.44 607
7.5 663
7.56 561
7.62 649
7.68 577
7.74 635
7.8 576
7.86 517
7.92 613
7.98 593
8.04 595
8.1 598
8.16 600
8.22 571
8.28 580
8.34 539
8.4 574
8.46 566
8.52 615
8.58 582
8.64 616
8.7 600
8.76 630
8.82 610
8.88 616
8.94 627
9 645
9.06 692
9.12 639
9.18 692
9.24 629
9.3 717
9.36 693
9.42 710
9.48 638
9.54 651
9.6 657
9.66 655
9.72 616
9.78 617
9.84 609
9.9 635
9.96 665
10.02 642
10.08 592
10.14 606
10.2 650
10.26 614
10.32 607
10.38 638
10.44 621
10.5 644
10.56 616
10.62 645
10.68 640
10.74 615
10.8 604
10.86 675
10.92 625
10.98 641
11.04 598
11.1 650
11.16 623
11.22 610
11.28 580
11.34 588
11.4 584
11.46 617
11.52 596
11.58 602
11.64 603
11.7 568
11.76 563
11.82 644
11.88 529
11.94 583
12 585
12.06 551
12.12 549
12.18 574
12.24 590
12.3 566
12.36 586
12.42 576
12.48 532
12.54 596
12.6 564
12.66 545
12.72 581
12.78 583
12.84 592
12.9 613
12.96 594
13.02 577
13.08 618
13.14 579
13.2 612
13.26 569
13.32 579
13.38 543
13.44 618
13.5 642
13.56 584
13.62 568
13.68 594
13.74 641
13.8 602
13.86 585
13.92 588
13.98 620
14.04 654
14.1 666
14.16 632
14.22 618
14.28 645
14.34 662
14.4 691
14.46 644
14.52 678
14.58 607
14.64 671
14.7 659
14.76 653
14.82 676
14.88 653
14.94 678
15 680
15.06 682
15.12 655
15.18 726
15.24 676
15.3 710
15.36 679
15.42 724
15.48 720
15.54 728
15.6 743
15.66 732
15.72 704
15.78 745
15.84 736
15.9 777
15.96 752
16.02 758
16.08 778
16.14 816
16.2 745
16.26 750
16.32 814
16.38 767
16.44 780
16.5 780
16.56 885
16.62 797
16.68 806
16.74 825
16.8 891
16.86 826
16.92 836
16.98 832
17.04 875
17.1 850
17.16 866
17.22 921
17.28 920
17.34 874
17.4 957
17.46 897
17.52 930
17.58 870
17.64 964
17.7 950
17.76 995
17.82 1011
17.88 975
17.94 986
18 957
18.06 1000
18.12 988
18.18 991
18.24 1016
18.3 1019
18.36 1074
18.42 1051
18.48 1058
18.54 1019
18.6 1032
18.66 1035
18.72 1106
18.78 1132
18.84 1129
18.9 1123
18.96 1177
19.02 1130
19.08 1138
19.14 1133
19.2 1119
19.26 1151
19.32 1179
19.38 1231
19.44 1186
19.5 1210
19.56 1236
19.62 1230
19.68 1183
19.74 1186
19.8 1196
19.86 1229
19.92 1233
19.98 1262
20 1253