File: xrd-UiO-67/pxrddata/107-6.ASC
3 1849
3.06 1567
3.12 1318
3.18 1206
3.24 1205
3.3 1241
3.36 1117
3.42 1073
3.48 1092
3.54 1010
3.6 1043
3.66 1019
3.72 1077
3.78 1011
3.84 1039
3.9 982
3.96 929
4.02 952
4.08 988
4.14 964
4.2 952
4.26 939
4.32 971
4.38 997
4.44 984
4.5 957
4.56 978
4.62 988
4.68 1015
4.74 1000
4.8 986
4.86 1070
4.92 1036
4.98 1012
5.04 991
5.1 1010
5.16 992
5.22 1022
5.28 1029
5.34 1007
5.4 1004
5.46 1019
5.52 952
5.58 955
5.64 905
5.7 887
5.76 893
5.82 907
5.88 793
5.94 844
6 801
6.06 784
6.12 787
6.18 721
6.24 675
6.3 699
6.36 738
6.42 717
6.48 745
6.54 650
6.6 658
6.66 666
6.72 626
6.78 677
6.84 676
6.9 613
6.96 635
7.02 659
7.08 578
7.14 623
7.2 640
7.26 598
7.32 589
7.38 646
7.44 615
7.5 608
7.56 607
7.62 608
7.68 663
7.74 621
7.8 578
7.86 596
7.92 602
7.98 555
8.04 571
8.1 633
8.16 586
8.22 595
8.28 570
8.34 632
8.4 615
8.46 623
8.52 589
8.58 648
8.64 624
8.7 625
8.76 614
8.82 604
8.88 598
8.94 600
9 639
9.06 606
9.12 593
9.18 619
9.24 591
9.3 589
9.36 639
9.42 602
9.48 607
9.54 623
9.6 619
9.66 603
9.72 630
9.78 609
9.84 596
9.9 611
9.96 596
10.02 617
10.08 635
10.14 606
10.2 626
10.26 631
10.32 625
10.38 597
10.44 650
10.5 585
10.56 598
10.62 562
10.68 624
10.74 587
10.8 540
10.86 602
10.92 637
10.98 592
11.04 567
11.1 658
11.16 583
11.22 606
11.28 606
11.34 607
11.4 584
11.46 618
11.52 614
11.58 601
11.64 625
11.7 614
11.76 639
11.82 580
11.88 598
11.94 654
12 599
12.06 568
12.12 601
12.18 614
12.24 617
12.3 619
12.36 675
12.42 624
12.48 610
12.54 644
12.6 622
12.66 633
12.72 605
12.78 637
12.84 656
12.9 637
12.96 679
13.02 634
13.08 595
13.14 675
13.2 664
13.26 675
13.32 637
13.38 681
13.44 674
13.5 687
13.56 687
13.62 642
13.68 715
13.74 680
13.8 683
13.86 685
13.92 711
13.98 696
14.04 690
14.1 697
14.16 698
14.22 663
14.28 682
14.34 692
14.4 756
14.46 701
14.52 719
14.58 671
14.64 710
14.7 720
14.76 785
14.82 768
14.88 753
14.94 765
15 771
15.06 763
15.12 802
15.18 781
15.24 749
15.3 794
15.36 769
15.42 790
15.48 786
15.54 823
15.6 803
15.66 859
15.72 791
15.78 867
15.84 848
15.9 894
15.96 873
16.02 874
16.08 824
16.14 897
16.2 898
16.26 880
16.32 907
16.38 884
16.44 958
16.5 904
16.56 912
16.62 943
16.68 989
16.74 989
16.8 986
16.86 959
16.92 1052
16.98 1026
17.04 986
17.1 1027
17.16 989
17.22 1032
17.28 991
17.34 1012
17.4 1028
17.46 1105
17.52 1101
17.58 1034
17.64 1092
17.7 1100
17.76 1065
17.82 1068
17.88 1167
17.94 1122
18 1126
18.06 1091
18.12 1135
18.18 1147
18.24 1175
18.3 1164
18.36 1232
18.42 1164
18.48 1202
18.54 1186
18.6 1169
18.66 1236
18.72 1276
18.78 1219
18.84 1213
18.9 1290
18.96 1239
19.02 1243
19.08 1277
19.14 1284
19.2 1234
19.26 1281
19.32 1261
19.38 1296
19.44 1307
19.5 1315
19.56 1344
19.62 1321
19.68 1325
19.74 1392
19.8 1292
19.86 1363
19.92 1301
19.98 1361
20 1375