File: xrd-UiO-67/pxrddata/107-8.ASC
3 2031
3.06 1584
3.12 1371
3.18 1229
3.24 1242
3.3 1203
3.36 1085
3.42 1046
3.48 993
3.54 1020
3.6 941
3.66 946
3.72 919
3.78 901
3.84 859
3.9 862
3.96 847
4.02 852
4.08 807
4.14 839
4.2 862
4.26 800
4.32 782
4.38 780
4.44 807
4.5 817
4.56 851
4.62 810
4.68 845
4.74 888
4.8 858
4.86 906
4.92 884
4.98 904
5.04 973
5.1 956
5.16 1023
5.22 1026
5.28 1074
5.34 1054
5.4 1049
5.46 1045
5.52 1048
5.58 1010
5.64 995
5.7 1059
5.76 953
5.82 956
5.88 826
5.94 812
6 758
6.06 758
6.12 730
6.18 739
6.24 659
6.3 645
6.36 706
6.42 652
6.48 611
6.54 603
6.6 600
6.66 579
6.72 577
6.78 598
6.84 546
6.9 497
6.96 561
7.02 550
7.08 538
7.14 502
7.2 529
7.26 585
7.32 592
7.38 520
7.44 534
7.5 558
7.56 487
7.62 551
7.68 532
7.74 547
7.8 515
7.86 571
7.92 547
7.98 509
8.04 506
8.1 541
8.16 512
8.22 543
8.28 501
8.34 539
8.4 530
8.46 522
8.52 551
8.58 536
8.64 539
8.7 538
8.76 532
8.82 488
8.88 595
8.94 586
9 552
9.06 579
9.12 605
9.18 583
9.24 575
9.3 583
9.36 613
9.42 565
9.48 571
9.54 546
9.6 539
9.66 560
9.72 558
9.78 580
9.84 581
9.9 538
9.96 566
10.02 536
10.08 554
10.14 577
10.2 552
10.26 545
10.32 540
10.38 506
10.44 585
10.5 539
10.56 526
10.62 530
10.68 570
10.74 575
10.8 532
10.86 551
10.92 536
10.98 568
11.04 521
11.1 518
11.16 535
11.22 480
11.28 536
11.34 518
11.4 519
11.46 568
11.52 524
11.58 518
11.64 468
11.7 543
11.76 522
11.82 523
11.88 496
11.94 542
12 547
12.06 535
12.12 520
12.18 495
12.24 520
12.3 471
12.36 532
12.42 504
12.48 536
12.54 549
12.6 506
12.66 527
12.72 504
12.78 542
12.84 546
12.9 527
12.96 516
13.02 517
13.08 517
13.14 539
13.2 523
13.26 553
13.32 546
13.38 528
13.44 597
13.5 599
13.56 528
13.62 563
13.68 556
13.74 539
13.8 554
13.86 605
13.92 567
13.98 551
14.04 572
14.1 568
14.16 572
14.22 602
14.28 544
14.34 586
14.4 585
14.46 586
14.52 587
14.58 618
14.64 594
14.7 593
14.76 599
14.82 645
14.88 610
14.94 635
15 629
15.06 589
15.12 656
15.18 674
15.24 633
15.3 649
15.36 669
15.42 658
15.48 640
15.54 690
15.6 690
15.66 632
15.72 646
15.78 651
15.84 712
15.9 696
15.96 674
16.02 702
16.08 667
16.14 654
16.2 696
16.26 748
16.32 700
16.38 746
16.44 735
16.5 707
16.56 761
16.62 739
16.68 723
16.74 800
16.8 802
16.86 787
16.92 807
16.98 774
17.04 766
17.1 790
17.16 804
17.22 830
17.28 848
17.34 821
17.4 851
17.46 830
17.52 838
17.58 792
17.64 887
17.7 937
17.76 887
17.82 874
17.88 834
17.94 916
18 871
18.06 886
18.12 861
18.18 949
18.24 910
18.3 926
18.36 930
18.42 935
18.48 952
18.54 911
18.6 983
18.66 950
18.72 1017
18.78 987
18.84 1098
18.9 1003
18.96 1039
19.02 1004
19.08 1015
19.14 1044
19.2 1053
19.26 1067
19.32 1070
19.38 1080
19.44 1063
19.5 1109
19.56 1082
19.62 1135
19.68 1101
19.74 1083
19.8 1062
19.86 1113
19.92 1108
19.98 1129
20 1127