File: xrd-UiO-67/pxrddata/107-2.ASC
3 1470
3.06 1053
3.12 825
3.18 733
3.24 751
3.3 694
3.36 644
3.42 629
3.48 585
3.54 591
3.6 561
3.66 565
3.72 554
3.78 549
3.84 499
3.9 544
3.96 556
4.02 564
4.08 527
4.14 537
4.2 524
4.26 504
4.32 497
4.38 481
4.44 513
4.5 541
4.56 469
4.62 505
4.68 479
4.74 480
4.8 489
4.86 473
4.92 493
4.98 538
5.04 509
5.1 545
5.16 553
5.22 568
5.28 582
5.34 607
5.4 686
5.46 735
5.52 840
5.58 844
5.64 963
5.7 992
5.76 1007
5.82 1128
5.88 1212
5.94 1290
6 1208
6.06 903
6.12 735
6.18 635
6.24 601
6.3 571
6.36 518
6.42 585
6.48 557
6.54 566
6.6 583
6.66 572
6.72 608
6.78 634
6.84 686
6.9 571
6.96 541
7.02 519
7.08 516
7.14 490
7.2 438
7.26 473
7.32 474
7.38 458
7.44 457
7.5 454
7.56 470
7.62 438
7.68 465
7.74 443
7.8 438
7.86 444
7.92 438
7.98 476
8.04 501
8.1 448
8.16 471
8.22 453
8.28 496
8.34 475
8.4 439
8.46 448
8.52 429
8.58 443
8.64 502
8.7 432
8.76 455
8.82 504
8.88 460
8.94 491
9 469
9.06 490
9.12 487
9.18 507
9.24 528
9.3 561
9.36 575
9.42 657
9.48 673
9.54 747
9.6 759
9.66 586
9.72 550
9.78 520
9.84 496
9.9 482
9.96 511
10.02 466
10.08 492
10.14 561
10.2 510
10.26 539
10.32 523
10.38 524
10.44 518
10.5 502
10.56 537
10.62 523
10.68 509
10.74 530
10.8 531
10.86 526
10.92 554
10.98 613
11.04 593
11.1 648
11.16 705
11.22 742
11.28 566
11.34 559
11.4 534
11.46 515
11.52 543
11.58 561
11.64 571
11.7 588
11.76 560
11.82 498
11.88 519
11.94 536
12 514
12.06 491
12.12 528
12.18 513
12.24 500
12.3 525
12.36 532
12.42 539
12.48 558
12.54 575
12.6 549
12.66 508
12.72 526
12.78 520
12.84 532
12.9 507
12.96 521
13.02 524
13.08 511
13.14 534
13.2 523
13.26 576
13.32 565
13.38 609
13.44 546
13.5 602
13.56 555
13.62 542
13.68 574
13.74 624
13.8 556
13.86 598
13.92 578
13.98 607
14.04 605
14.1 575
14.16 566
14.22 661
14.28 598
14.34 606
14.4 621
14.46 615
14.52 639
14.58 691
14.64 671
14.7 640
14.76 632
14.82 653
14.88 652
14.94 628
15 678
15.06 700
15.12 662
15.18 701
15.24 694
15.3 692
15.36 736
15.42 698
15.48 727
15.54 720
15.6 770
15.66 747
15.72 746
15.78 746
15.84 813
15.9 723
15.96 793
16.02 760
16.08 805
16.14 792
16.2 778
16.26 800
16.32 826
16.38 835
16.44 850
16.5 864
16.56 952
16.62 855
16.68 856
16.74 883
16.8 868
16.86 870
16.92 964
16.98 961
17.04 929
17.1 932
17.16 960
17.22 966
17.28 1029
17.34 1022
17.4 997
17.46 967
17.52 1025
17.58 987
17.64 1024
17.7 1057
17.76 1068
17.82 1090
17.88 1036
17.94 1124
18 1099
18.06 1121
18.12 1109
18.18 1146
18.24 1154
18.3 1167
18.36 1176
18.42 1212
18.48 1247
18.54 1223
18.6 1232
18.66 1231
18.72 1251
18.78 1281
18.84 1294
18.9 1267
18.96 1304
19.02 1349
19.08 1324
19.14 1358
19.2 1342
19.26 1444
19.32 1441
19.38 1463
19.44 1409
19.5 1472
19.56 1503
19.62 1475
19.68 1559
19.74 1532
19.8 1576
19.86 1573
19.92 1538
19.98 1515
20 1566