File: xrd-UiO-67/pxrddata/2-1.ASC
2.8 5434
2.9 3591
3 2315
3.1 1699
3.2 1572
3.3 1583
3.4 1492
3.5 1361
3.6 1338
3.7 1393
3.8 1283
3.9 1262
4 1327
4.1 1267
4.2 1213
4.3 1282
4.4 1207
4.5 1241
4.6 1215
4.7 1232
4.8 1212
4.9 1216
5 1272
5.1 1284
5.2 1203
5.3 1284
5.4 1278
5.5 1283
5.6 1469
5.7 1632
5.8 1505
5.9 1359
6 1096
6.1 1028
6.2 962
6.3 1027
6.4 942
6.5 1020
6.6 1091
6.7 1034
6.8 947
6.9 846
7 813
7.1 839
7.2 758
7.3 776
7.4 742
7.5 790
7.6 736
7.7 733
7.8 764
7.9 773
8 787
8.1 714
8.2 789
8.3 757
8.4 696
8.5 767
8.6 691
8.7 749
8.8 721
8.9 794
9 751
9.1 777
9.2 788
9.3 818
9.4 887
9.5 806
9.6 758
9.7 701
9.8 742
9.9 705
10 703
10.1 761
10.2 755
10.3 703
10.4 754
10.5 751
10.6 750
10.7 729
10.8 730
10.9 810
11 859
11.1 820
11.2 741
11.3 706
11.4 795
11.5 790
11.6 803
11.7 768
11.8 730
11.9 717
12 739
12.1 710
12.2 754
12.3 700
12.4 699
12.5 773
12.6 749
12.7 743
12.8 754
12.9 704
13 757
13.1 740
13.2 739
13.3 768
13.4 764
13.5 738
13.6 743
13.7 790
13.8 738
13.9 785
14 765
14.1 766
14.2 770
14.3 787
14.4 765
14.5 786
14.6 824
14.7 828
14.8 824
14.9 825
15 832
15.1 842
15.2 904
15.3 903
15.4 823
15.5 880
15.6 887
15.7 905
15.8 902
15.9 897
16 932
16.1 931
16.2 1035
16.3 1009
16.4 1000
16.5 1010
16.6 1006
16.7 1022
16.8 993
16.9 1097
17 1083
17.1 1072
17.2 1131
17.3 1113
17.4 1151
17.5 1105
17.6 1215
17.7 1193
17.8 1208
17.9 1189
18 1249
18.1 1297
18.2 1355
18.3 1257
18.4 1268
18.5 1344
18.6 1405
18.7 1412
18.8 1411
18.9 1440
19 1425
19.1 1458
19.2 1465
19.3 1562
19.4 1552
19.5 1497
19.6 1620
19.7 1665
19.8 1664
19.9 1688
20 1646
20.1 1583
20.2 1632
20.3 1608
20.4 1684
20.5 1589
20.6 1656
20.7 1621
20.8 1646
20.9 1684
21 1613
21.1 1676
21.2 1587
21.3 1687
21.4 1651
21.5 1659
21.6 1701
21.7 1654
21.8 1613
21.9 1652
22 1618
22.1 1582
22.2 1603
22.3 1606
22.4 1629
22.5 1584
22.6 1525
22.7 1492
22.8 1539
22.9 1515
23 1555
23.1 1474
23.2 1487
23.3 1519
23.4 1477
23.5 1428
23.6 1462
23.7 1514
23.8 1566
23.9 1433
24 1416
24.1 1348
24.2 1367
24.3 1303
24.4 1351
24.5 1308
24.6 1332
24.7 1322
24.8 1331
24.9 1326
25 1261
25.1 1206
25.2 1233
25.3 1234
25.4 1268
25.5 1332
25.6 1251
25.7 1241
25.8 1150
25.9 1130
26 1083
26.1 1134
26.2 1134
26.3 1131
26.4 1170
26.5 1170
26.6 1102
26.7 1108
26.8 1041
26.9 1086
27 976
27.1 1090
27.2 1074
27.3 1065
27.4 1122
27.5 1084
27.6 1029
27.7 984
27.8 1033
27.9 1078
28 919
28.1 1007
28.2 1036
28.3 990
28.4 902
28.5 975
28.6 1005
28.7 955
28.8 1050
28.9 1021
29 980
29.1 1011
29.2 958
29.3 969
29.4 946
29.5 928
29.6 928
29.7 935
29.8 957
29.9 968
30 896