File: xrd-UiO-67/pxrddata/2-17.ASC
2.8 5356
2.9 3380
3 2287
3.1 1638
3.2 1535
3.3 1399
3.4 1402
3.5 1311
3.6 1252
3.7 1170
3.8 1210
3.9 1166
4 1141
4.1 1100
4.2 1053
4.3 1089
4.4 1118
4.5 1142
4.6 1156
4.7 1149
4.8 1140
4.9 1186
5 1141
5.1 1249
5.2 1250
5.3 1323
5.4 1399
5.5 1430
5.6 1703
5.7 2224
5.8 3273
5.9 1121
6 1175
6.1 1166
6.2 1134
6.3 1125
6.4 1188
6.5 1298
6.6 1565
6.7 1727
6.8 964
6.9 946
7 969
7.1 957
7.2 956
7.3 923
7.4 921
7.5 938
7.6 976
7.7 903
7.8 1003
7.9 984
8 955
8.1 919
8.2 940
8.3 938
8.4 971
8.5 947
8.6 933
8.7 1006
8.8 951
8.9 1026
9 1039
9.1 1068
9.2 1175
9.3 1548
9.4 2218
9.5 1109
9.6 996
9.7 1028
9.8 1007
9.9 1054
10 1026
10.1 1034
10.2 1062
10.3 1007
10.4 992
10.5 1024
10.6 1123
10.7 1100
10.8 1262
10.9 1458
11 2387
11.1 1191
11.2 1144
11.3 1145
11.4 1333
11.5 1702
11.6 1097
11.7 1130
11.8 1113
11.9 1127
12 1116
12.1 1097
12.2 1115
12.3 1162
12.4 1133
12.5 1186
12.6 1162
12.7 1164
12.8 1191
12.9 1176
13 1201
13.1 1276
13.2 1313
13.3 1365
13.4 1325
13.5 1337
13.6 1216
13.7 1342
13.8 1340
13.9 1371
14 1324
14.1 1376
14.2 1418
14.3 1469
14.4 1573
14.5 1535
14.6 1471
14.7 1504
14.8 1443
14.9 1463
15 1458
15.1 1551
15.2 1530
15.3 1597
15.4 1548
15.5 1590
15.6 1707
15.7 1678
15.8 1697
15.9 1690
16 1742
16.1 1716
16.2 1789
16.3 1779
16.4 1868
16.5 1853
16.6 1923
16.7 1919
16.8 1912
16.9 1964
17 2081
17.1 2148
17.2 2243
17.3 2101
17.4 2103
17.5 2211
17.6 2229
17.7 2217
17.8 2281
17.9 2358
18 2339
18.1 2382
18.2 2408
18.3 2527
18.4 2504
18.5 2568
18.6 2629
18.7 2514
18.8 2567
18.9 2635
19 2664
19.1 2726
19.2 2791
19.3 2774
19.4 2752
19.5 2932
19.6 3444
19.7 3055
19.8 2952
19.9 3832
20 2939
20.1 2935
20.2 2899
20.3 2836
20.4 2761
20.5 2837
20.6 2962
20.7 2775
20.8 2930
20.9 2884
21 2867
21.1 2847
21.2 2704
21.3 2845
21.4 2809
21.5 2881
21.6 2791
21.7 2818
21.8 2930
21.9 2763
22 2825
22.1 2709
22.2 2696
22.3 2814
22.4 2649
22.5 2559
22.6 2618
22.7 2672
22.8 2685
22.9 2552
23 2664
23.1 2507
23.2 2476
23.3 2546
23.4 2543
23.5 2482
23.6 2528
23.7 3104
23.8 2733
23.9 2395
24 2442
24.1 2390
24.2 2321
24.3 2312
24.4 2285
24.5 2333
24.6 2365
24.7 2313
24.8 2417
24.9 2648
25 2181
25.1 2195
25.2 2256
25.3 2216
25.4 2253
25.5 2668
25.6 2524
25.7 2115
25.8 2006
25.9 2135
26 2107
26.1 2042
26.2 2087
26.3 2045
26.4 2049
26.5 2094
26.6 2490
26.7 2107
26.8 1939
26.9 1995
27 1916
27.1 1963
27.2 1971
27.3 2029
27.4 2269
27.5 2248
27.6 1938
27.7 1897
27.8 1870
27.9 1894
28 1803
28.1 1889
28.2 1962
28.3 2013
28.4 1890
28.5 1856
28.6 1891
28.7 1924
28.8 2124
28.9 2116
29 2063
29.1 2039
29.2 1759
29.3 1781
29.4 1785
29.5 1820
29.6 1754
29.7 1676
29.8 1717
29.9 1782
30 1769