File: xrd-UiO-67/pxrddata/2-2.ASC
2.8 5617
2.9 3373
3 2274
3.1 1556
3.2 1475
3.3 1407
3.4 1271
3.5 1246
3.6 1173
3.7 1126
3.8 1043
3.9 1038
4 983
4.1 920
4.2 953
4.3 953
4.4 809
4.5 819
4.6 882
4.7 897
4.8 826
4.9 846
5 799
5.1 772
5.2 831
5.3 848
5.4 863
5.5 976
5.6 1083
5.7 1458
5.8 1596
5.9 1292
6 736
6.1 657
6.2 697
6.3 700
6.4 732
6.5 837
6.6 1019
6.7 1125
6.8 710
6.9 581
7 552
7.1 546
7.2 557
7.3 571
7.4 546
7.5 549
7.6 584
7.7 507
7.8 542
7.9 504
8 517
8.1 534
8.2 537
8.3 499
8.4 510
8.5 484
8.6 508
8.7 480
8.8 518
8.9 453
9 483
9.1 527
9.2 532
9.3 649
9.4 781
9.5 744
9.6 512
9.7 466
9.8 500
9.9 483
10 461
10.1 444
10.2 503
10.3 491
10.4 478
10.5 467
10.6 469
10.7 486
10.8 507
10.9 600
11 702
11.1 739
11.2 507
11.3 478
11.4 545
11.5 548
11.6 584
11.7 440
11.8 438
11.9 422
12 441
12.1 421
12.2 441
12.3 414
12.4 431
12.5 459
12.6 487
12.7 438
12.8 444
12.9 466
13 463
13.1 456
13.2 462
13.3 472
13.4 461
13.5 457
13.6 449
13.7 474
13.8 437
13.9 463
14 436
14.1 442
14.2 496
14.3 473
14.4 475
14.5 549
14.6 498
14.7 451
14.8 456
14.9 473
15 484
15.1 500
15.2 486
15.3 463
15.4 525
15.5 498
15.6 516
15.7 491
15.8 540
15.9 543
16 576
16.1 528
16.2 503
16.3 550
16.4 542
16.5 505
16.6 585
16.7 585
16.8 595
16.9 598
17 555
17.1 633
17.2 686
17.3 688
17.4 591
17.5 593
17.6 615
17.7 639
17.8 650
17.9 633
18 635
18.1 696
18.2 627
18.3 673
18.4 684
18.5 665
18.6 698
18.7 667
18.8 698
18.9 686
19 729
19.1 744
19.2 749
19.3 769
19.4 713
19.5 803
19.6 869
19.7 933
19.8 873
19.9 983
20 975
20.1 789
20.2 785
20.3 807
20.4 761
20.5 807
20.6 788
20.7 819
20.8 829
20.9 851
21 853
21.1 854
21.2 819
21.3 875
21.4 792
21.5 875
21.6 830
21.7 915
21.8 951
21.9 912
22 858
22.1 852
22.2 919
22.3 917
22.4 805
22.5 869
22.6 922
22.7 875
22.8 882
22.9 880
23 877
23.1 880
23.2 872
23.3 853
23.4 891
23.5 877
23.6 961
23.7 1070
23.8 1060
23.9 959
24 927
24.1 912
24.2 870
24.3 842
24.4 842
24.5 921
24.6 846
24.7 879
24.8 943
24.9 1006
25 930
25.1 781
25.2 839
25.3 865
25.4 909
25.5 1007
25.6 1080
25.7 861
25.8 844
25.9 806
26 800
26.1 793
26.2 870
26.3 808
26.4 807
26.5 823
26.6 942
26.7 941
26.8 820
26.9 780
27 771
27.1 786
27.2 785
27.3 849
27.4 932
27.5 1003
27.6 840
27.7 777
27.8 769
27.9 746
28 743
28.1 774
28.2 801
28.3 882
28.4 801
28.5 760
28.6 795
28.7 787
28.8 953
28.9 1001
29 955
29.1 953
29.2 797
29.3 774
29.4 766
29.5 750
29.6 744
29.7 774
29.8 752
29.9 751
30 752