File: xrd-UiO-67/pxrddata/2-22.ASC
2.8 5643
2.9 3907
3 2603
3.1 1926
3.2 1680
3.3 1623
3.4 1505
3.5 1439
3.6 1408
3.7 1474
3.8 1466
3.9 1502
4 1732
4.1 2385
4.2 1437
4.3 1265
4.4 1155
4.5 1064
4.6 991
4.7 1054
4.8 1100
4.9 1146
5 1230
5.1 1401
5.2 1628
5.3 2001
5.4 3156
5.5 2244
5.6 2710
5.7 4026
5.8 6927
5.9 1583
6 886
6.1 848
6.2 833
6.3 872
6.4 830
6.5 832
6.6 901
6.7 1104
6.8 1215
6.9 805
7 764
7.1 749
7.2 646
7.3 721
7.4 670
7.5 716
7.6 625
7.7 658
7.8 710
7.9 676
8 699
8.1 800
8.2 746
8.3 646
8.4 666
8.5 659
8.6 660
8.7 680
8.8 692
8.9 764
9 813
9.1 901
9.2 1042
9.3 1715
9.4 1085
9.5 737
9.6 677
9.7 687
9.8 773
9.9 746
10 799
10.1 940
10.2 1252
10.3 783
10.4 683
10.5 747
10.6 779
10.7 887
10.8 1064
10.9 1155
11 1457
11.1 731
11.2 732
11.3 773
11.4 864
11.5 1276
11.6 780
11.7 716
11.8 680
11.9 711
12 756
12.1 765
12.2 978
12.3 773
12.4 751
12.5 698
12.6 714
12.7 717
12.8 672
12.9 656
13 623
13.1 767
13.2 759
13.3 842
13.4 806
13.5 775
13.6 742
13.7 734
13.8 750
13.9 723
14 728
14.1 782
14.2 739
14.3 845
14.4 852
14.5 767
14.6 832
14.7 810
14.8 926
14.9 857
15 815
15.1 839
15.2 932
15.3 886
15.4 844
15.5 932
15.6 888
15.7 861
15.8 929
15.9 903
16 903
16.1 903
16.2 953
16.3 1087
16.4 964
16.5 972
16.6 939
16.7 1073
16.8 1084
16.9 1318
17 2164
17.1 1285
17.2 1138
17.3 1171
17.4 1163
17.5 1161
17.6 1100
17.7 1104
17.8 1124
17.9 1167
18 1197
18.1 1136
18.2 1202
18.3 1192
18.4 1256
18.5 1200
18.6 1294
18.7 1336
18.8 1456
18.9 1368
19 1386
19.1 1699
19.2 1447
19.3 1396
19.4 1438
19.5 1664
19.6 1551
19.7 1454
19.8 1447
19.9 1538
20 1415
20.1 1488
20.2 1508
20.3 1682
20.4 1499
20.5 1470
20.6 1488
20.7 1478
20.8 1489
20.9 1473
21 1491
21.1 1603
21.2 1586
21.3 1587
21.4 1493
21.5 1513
21.6 1542
21.7 1629
21.8 1508
21.9 1639
22 1784
22.1 1567
22.2 1522
22.3 1557
22.4 1586
22.5 1555
22.6 1528
22.7 1498
22.8 1492
22.9 1508
23 1630
23.1 1848
23.2 1573
23.3 1525
23.4 1506
23.5 1521
23.6 1620
23.7 1565
23.8 1459
23.9 1521
24 1389
24.1 1381
24.2 1416
24.3 1426
24.4 1531
24.5 1750
24.6 1687
24.7 1544
24.8 1610
24.9 1549
25 1476
25.1 1635
25.2 1574
25.3 1688
25.4 1499
25.5 1615
25.6 1468
25.7 1358
25.8 1258
25.9 1299
26 1239
26.1 1312
26.2 1304
26.3 1334
26.4 1250
26.5 1283
26.6 1321
26.7 1372
26.8 1591
26.9 1600
27 1460
27.1 1718
27.2 1570
27.3 1272
27.4 1317
27.5 1182
27.6 1155
27.7 1277
27.8 1261
27.9 1170
28 1141
28.1 1218
28.2 1259
28.3 1547
28.4 1311
28.5 1178
28.6 1236
28.7 1354
28.8 1320
28.9 1214
29 1249
29.1 1176
29.2 1189
29.3 1128
29.4 1063
29.5 1075
29.6 1041
29.7 1077
29.8 1305
29.9 1214
30 1088