File: xrd-UiO-67/pxrddata/2-23.ASC
2.8 5357
2.9 3481
3 2133
3.1 1551
3.2 1431
3.3 1327
3.4 1244
3.5 1253
3.6 1194
3.7 1126
3.8 1140
3.9 1079
4 1130
4.1 1333
4.2 1322
4.3 963
4.4 899
4.5 870
4.6 854
4.7 826
4.8 806
4.9 858
5 856
5.1 914
5.2 990
5.3 1178
5.4 1354
5.5 1539
5.6 1464
5.7 1691
5.8 2294
5.9 2396
6 933
6.1 782
6.2 757
6.3 724
6.4 766
6.5 752
6.6 764
6.7 864
6.8 902
6.9 846
7 747
7.1 712
7.2 698
7.3 646
7.4 661
7.5 673
7.6 730
7.7 731
7.8 693
7.9 736
8 683
8.1 724
8.2 774
8.3 710
8.4 654
8.5 661
8.6 696
8.7 733
8.8 675
8.9 698
9 681
9.1 720
9.2 723
9.3 865
9.4 926
9.5 816
9.6 718
9.7 653
9.8 704
9.9 639
10 707
10.1 692
10.2 785
10.3 770
10.4 679
10.5 677
10.6 686
10.7 744
10.8 774
10.9 858
11 837
11.1 893
11.2 733
11.3 647
11.4 747
11.5 853
11.6 758
11.7 736
11.8 658
11.9 713
12 705
12.1 744
12.2 772
12.3 691
12.4 696
12.5 750
12.6 667
12.7 692
12.8 661
12.9 667
13 687
13.1 678
13.2 741
13.3 715
13.4 720
13.5 692
13.6 712
13.7 735
13.8 774
13.9 759
14 735
14.1 721
14.2 781
14.3 763
14.4 770
14.5 768
14.6 732
14.7 821
14.8 820
14.9 830
15 827
15.1 860
15.2 817
15.3 841
15.4 798
15.5 826
15.6 860
15.7 847
15.8 884
15.9 938
16 828
16.1 860
16.2 892
16.3 936
16.4 979
16.5 924
16.6 926
16.7 967
16.8 999
16.9 1089
17 1350
17.1 1296
17.2 1196
17.3 1085
17.4 1090
17.5 1083
17.6 1097
17.7 1038
17.8 1143
17.9 1167
18 1178
18.1 1141
18.2 1121
18.3 1137
18.4 1187
18.5 1170
18.6 1255
18.7 1312
18.8 1351
18.9 1326
19 1356
19.1 1415
19.2 1404
19.3 1467
19.4 1447
19.5 1496
19.6 1519
19.7 1493
19.8 1487
19.9 1603
20 1538
20.1 1456
20.2 1556
20.3 1559
20.4 1624
20.5 1595
20.6 1551
20.7 1599
20.8 1533
20.9 1610
21 1630
21.1 1588
21.2 1593
21.3 1659
21.4 1556
21.5 1557
21.6 1537
21.7 1575
21.8 1600
21.9 1534
22 1577
22.1 1610
22.2 1532
22.3 1466
22.4 1497
22.5 1445
22.6 1426
22.7 1431
22.8 1468
22.9 1436
23 1400
23.1 1497
23.2 1464
23.3 1408
23.4 1373
23.5 1321
23.6 1346
23.7 1365
23.8 1360
23.9 1290
24 1243
24.1 1283
24.2 1211
24.3 1193
24.4 1196
24.5 1235
24.6 1292
24.7 1207
24.8 1215
24.9 1213
25 1152
25.1 1153
25.2 1180
25.3 1248
25.4 1217
25.5 1137
25.6 1125
25.7 1105
25.8 969
25.9 1005
26 996
26.1 1012
26.2 1008
26.3 979
26.4 945
26.5 932
26.6 974
26.7 962
26.8 974
26.9 1062
27 1032
27.1 1069
27.2 987
27.3 949
27.4 886
27.5 890
27.6 834
27.7 859
27.8 881
27.9 852
28 764
28.1 816
28.2 827
28.3 864
28.4 909
28.5 882
28.6 817
28.7 846
28.8 866
28.9 818
29 814
29.1 799
29.2 818
29.3 771
29.4 790
29.5 743
29.6 733
29.7 724
29.8 798
29.9 789
30 799