File: xrd-UiO-67/pxrddata/2-25.ASC
2.8 5498
2.9 3323
3 2132
3.1 1538
3.2 1347
3.3 1362
3.4 1269
3.5 1176
3.6 1140
3.7 1127
3.8 994
3.9 981
4 958
4.1 988
4.2 935
4.3 902
4.4 882
4.5 855
4.6 895
4.7 834
4.8 834
4.9 892
5 878
5.1 855
5.2 916
5.3 984
5.4 992
5.5 1126
5.6 1376
5.7 1862
5.8 2731
5.9 1666
6 859
6.1 825
6.2 884
6.3 853
6.4 874
6.5 1070
6.6 1286
6.7 1798
6.8 1060
6.9 727
7 738
7.1 720
7.2 722
7.3 678
7.4 677
7.5 685
7.6 698
7.7 742
7.8 674
7.9 719
8 669
8.1 688
8.2 672
8.3 724
8.4 697
8.5 669
8.6 701
8.7 715
8.8 669
8.9 700
9 734
9.1 730
9.2 804
9.3 913
9.4 1212
9.5 1003
9.6 721
9.7 674
9.8 683
9.9 697
10 690
10.1 692
10.2 697
10.3 735
10.4 683
10.5 750
10.6 675
10.7 748
10.8 741
10.9 938
11 1140
11.1 1141
11.2 827
11.3 778
11.4 757
11.5 946
11.6 804
11.7 739
11.8 749
11.9 693
12 685
12.1 695
12.2 752
12.3 701
12.4 695
12.5 737
12.6 689
12.7 756
12.8 703
12.9 746
13 717
13.1 709
13.2 777
13.3 803
13.4 812
13.5 773
13.6 736
13.7 735
13.8 741
13.9 765
14 796
14.1 780
14.2 809
14.3 839
14.4 907
14.5 918
14.6 798
14.7 808
14.8 838
14.9 835
15 831
15.1 844
15.2 819
15.3 842
15.4 895
15.5 865
15.6 920
15.7 852
15.8 919
15.9 941
16 975
16.1 932
16.2 957
16.3 949
16.4 973
16.5 1033
16.6 1043
16.7 1068
16.8 1108
16.9 1054
17 1195
17.1 1185
17.2 1164
17.3 1207
17.4 1124
17.5 1187
17.6 1157
17.7 1214
17.8 1159
17.9 1253
18 1263
18.1 1232
18.2 1275
18.3 1347
18.4 1290
18.5 1356
18.6 1442
18.7 1368
18.8 1396
18.9 1351
19 1375
19.1 1520
19.2 1448
19.3 1413
19.4 1548
19.5 1618
19.6 1766
19.7 1886
19.8 1734
19.9 1918
20 1956
20.1 1569
20.2 1642
20.3 1539
20.4 1632
20.5 1628
20.6 1648
20.7 1673
20.8 1618
20.9 1593
21 1600
21.1 1629
21.2 1620
21.3 1587
21.4 1664
21.5 1652
21.6 1736
21.7 1669
21.8 1756
21.9 1712
22 1610
22.1 1553
22.2 1593
22.3 1602
22.4 1532
22.5 1530
22.6 1480
22.7 1518
22.8 1498
22.9 1484
23 1477
23.1 1543
23.2 1523
23.3 1411
23.4 1459
23.5 1384
23.6 1417
23.7 1616
23.8 1726
23.9 1424
24 1409
24.1 1305
24.2 1284
24.3 1228
24.4 1231
24.5 1216
24.6 1306
24.7 1281
24.8 1334
24.9 1443
25 1268
25.1 1227
25.2 1176
25.3 1193
25.4 1216
25.5 1372
25.6 1504
25.7 1197
25.8 1088
25.9 1089
26 991
26.1 1066
26.2 1040
26.3 1066
26.4 1046
26.5 1107
26.6 1249
26.7 1300
26.8 1098
26.9 1073
27 1026
27.1 1003
27.2 948
27.3 984
27.4 1166
27.5 1278
27.6 1056
27.7 920
27.8 979
27.9 944
28 932
28.1 874
28.2 1003
28.3 985
28.4 926
28.5 880
28.6 893
28.7 907
28.8 1093
28.9 1285
29 1175
29.1 1172
29.2 982
29.3 891
29.4 806
29.5 855
29.6 861
29.7 874
29.8 809
29.9 786
30 791