File: xrd-UiO-67/pxrddata/3-1.ASC
3 2191
3.1 1544
3.2 1421
3.3 1371
3.4 1306
3.5 1280
3.6 1168
3.7 1078
3.8 1036
3.9 1086
4 1072
4.1 1045
4.2 1006
4.3 960
4.4 931
4.5 984
4.6 915
4.7 892
4.8 954
4.9 917
5 931
5.1 946
5.2 1008
5.3 998
5.4 1076
5.5 1143
5.6 1262
5.7 1493
5.8 2171
5.9 1960
6 939
6.1 909
6.2 828
6.3 838
6.4 914
6.5 1004
6.6 1189
6.7 1685
6.8 938
6.9 787
7 746
7.1 721
7.2 757
7.3 751
7.4 686
7.5 706
7.6 759
7.7 724
7.8 722
7.9 743
8 696
8.1 668
8.2 693
8.3 696
8.4 689
8.5 709
8.6 734
8.7 691
8.8 693
8.9 728
9 747
9.1 780
9.2 809
9.3 957
9.4 1277
9.5 1380
9.6 796
9.7 756
9.8 718
9.9 775
10 710
10.1 666
10.2 692
10.3 721
10.4 702
10.5 764
10.6 730
10.7 746
10.8 807
10.9 941
11 1323
11.1 1592
11.2 777
11.3 772
11.4 883
11.5 1079
11.6 1090
11.7 737
11.8 788
11.9 736
12 765
12.1 777
12.2 786
12.3 733
12.4 740
12.5 774
12.6 754
12.7 791
12.8 764
12.9 763
13 797
13.1 844
13.2 858
13.3 989
13.4 854
13.5 805
13.6 816
13.7 782
13.8 834
13.9 777
14 813
14.1 843
14.2 858
14.3 903
14.4 952
14.5 1060
14.6 887
14.7 889
14.8 918
14.9 910
15 932
15.1 945
15.2 957
15.3 986
15.4 992
15.5 968
15.6 986
15.7 1005
15.8 1059
15.9 1060
16 1048
16.1 1054
16.2 1074
16.3 1126
16.4 1124
16.5 1110
16.6 1206
16.7 1146
16.8 1173
16.9 1181
17 1311
17.1 1299
17.2 1401
17.3 1481
17.4 1340
17.5 1292
17.6 1382
17.7 1376
17.8 1386
17.9 1439
18 1488
18.1 1461
18.2 1558
18.3 1494
18.4 1529
18.5 1536
18.6 1659
18.7 1689
18.8 1701
18.9 1663
19 1704
19.1 1767
19.2 1803
19.3 1838
19.4 1819
19.5 1901
19.6 2284
19.7 2480
19.8 2037
19.9 2538
20 2589
20.1 1892
20.2 1943
20.3 1898
20.4 1927
20.5 1906
20.6 1926
20.7 1909
20.8 1932
20.9 1908
21 1950
21.1 1914
21.2 1978
21.3 1927
21.4 1876
21.5 1975
21.6 1950
21.7 2035
21.8 2196
21.9 2027
22 1945
22.1 1949
22.2 1882
22.3 1915
22.4 1976
22.5 1834
22.6 1823
22.7 1846
22.8 1862
22.9 1813
23 1905
23.1 1875
23.2 1759
23.3 1708
23.4 1657
23.5 1686
23.6 1770
23.7 2186
23.8 2383
23.9 1727
24 1776
24.1 1741
24.2 1617
24.3 1583
24.4 1585
24.5 1594
24.6 1607
24.7 1619
24.8 1667
24.9 2026
25 1747
25.1 1500
25.2 1476
25.3 1496
25.4 1550
25.5 1900
25.6 2421
25.7 1694
25.8 1449
25.9 1429
26 1411
26.1 1418
26.2 1308
26.3 1411
26.4 1340
26.5 1451
26.6 1719
26.7 1906
26.8 1423
26.9 1345
27 1329
27.1 1314
27.2 1289
27.3 1404
27.4 1578
27.5 1976
27.6 1513
27.7 1187
27.8 1233
27.9 1241
28 1272
28.1 1200
28.2 1289
28.3 1449
28.4 1318
28.5 1245
28.6 1211
28.7 1312
28.8 1456
28.9 1741
29 1658
29.1 1851
29.2 1453
29.3 1203
29.4 1179
29.5 1186
29.6 1150
29.7 1147
29.8 1201
29.9 1172
30 1141