File: xrd-UiO-67/pxrddata/3-12.ASC
3 2119
3.1 1581
3.2 1478
3.3 1415
3.4 1267
3.5 1272
3.6 1198
3.7 1281
3.8 1222
3.9 1249
4 1374
4.1 1546
4.2 1527
4.3 1035
4.4 1130
4.5 1008
4.6 1098
4.7 1029
4.8 1064
4.9 1183
5 1147
5.1 1296
5.2 1412
5.3 1788
5.4 2273
5.5 2839
5.6 1997
5.7 2741
5.8 5274
5.9 2488
6 956
6.1 822
6.2 835
6.3 752
6.4 808
6.5 820
6.6 871
6.7 1013
6.8 1339
6.9 842
7 759
7.1 713
7.2 713
7.3 696
7.4 752
7.5 676
7.6 677
7.7 685
7.8 695
7.9 712
8 661
8.1 751
8.2 860
8.3 676
8.4 698
8.5 703
8.6 699
8.7 668
8.8 713
8.9 759
9 746
9.1 875
9.2 1017
9.3 1447
9.4 2330
9.5 761
9.6 691
9.7 733
9.8 773
9.9 776
10 777
10.1 921
10.2 1243
10.3 934
10.4 776
10.5 729
10.6 788
10.7 837
10.8 1226
10.9 1096
11 1849
11.1 921
11.2 749
11.3 793
11.4 838
11.5 1035
11.6 1252
11.7 759
11.8 718
11.9 700
12 753
12.1 753
12.2 914
12.3 1005
12.4 822
12.5 740
12.6 774
12.7 788
12.8 706
12.9 803
13 779
13.1 817
13.2 761
13.3 809
13.4 967
13.5 881
13.6 891
13.7 824
13.8 802
13.9 803
14 803
14.1 858
14.2 884
14.3 868
14.4 973
14.5 894
14.6 899
14.7 937
14.8 943
14.9 1022
15 919
15.1 940
15.2 953
15.3 1031
15.4 990
15.5 939
15.6 987
15.7 984
15.8 982
15.9 1014
16 1019
16.1 1010
16.2 1078
16.3 1158
16.4 1228
16.5 1090
16.6 1123
16.7 1191
16.8 1227
16.9 1413
17 1795
17.1 1325
17.2 1318
17.3 1365
17.4 1308
17.5 1255
17.6 1271
17.7 1317
17.8 1341
17.9 1432
18 1324
18.1 1407
18.2 1357
18.3 1427
18.4 1375
18.5 1357
18.6 1426
18.7 1505
18.8 1706
18.9 1629
19 1611
19.1 1840
19.2 2156
19.3 1639
19.4 1681
19.5 2041
19.6 2227
19.7 1733
19.8 1624
19.9 1950
20 1746
20.1 1726
20.2 1863
20.3 1976
20.4 1947
20.5 1818
20.6 1761
20.7 1812
20.8 1782
20.9 1807
21 1836
21.1 1987
21.2 1921
21.3 1741
21.4 1859
21.5 1759
21.6 1858
21.7 1928
21.8 1858
21.9 1897
22 2317
22.1 1970
22.2 1836
22.3 1840
22.4 1825
22.5 2045
22.6 1784
22.7 1835
22.8 1810
22.9 1863
23 1971
23.1 2203
23.2 2139
23.3 1848
23.4 1791
23.5 1816
23.6 1879
23.7 2134
23.8 1822
23.9 1792
24 1955
24.1 1731
24.2 1663
24.3 1740
24.4 1840
24.5 2144
24.6 2339
24.7 1890
24.8 2319
24.9 2167
25 2037
25.1 2114
25.2 2467
25.3 2561
25.4 1925
25.5 1926
25.6 2335
25.7 1817
25.8 1802
25.9 1674
26 1748
26.1 1716
26.2 1718
26.3 1889
26.4 1713
26.5 1641
26.6 1655
26.7 1771
26.8 2123
26.9 2599
27 1858
27.1 1983
27.2 2711
27.3 1901
27.4 1865
27.5 1677
27.6 1595
27.7 1723
27.8 1807
27.9 1701
28 1597
28.1 1653
28.2 1781
28.3 2105
28.4 2169
28.5 1864
28.6 1710
28.7 1942
28.8 2368
28.9 1775
29 1976
29.1 1818
29.2 1725
29.3 1617
29.4 1484
29.5 1521
29.6 1513
29.7 1560
29.8 1715
29.9 2230
30 1671