File: xrd-UiO-67/pxrddata/3-19.ASC
3 2001
3.1 1587
3.2 1556
3.3 1369
3.4 1370
3.5 1336
3.6 1301
3.7 1160
3.8 1245
3.9 1112
4 1060
4.1 954
4.2 974
4.3 968
4.4 974
4.5 936
4.6 869
4.7 861
4.8 843
4.9 855
5 840
5.1 830
5.2 826
5.3 864
5.4 827
5.5 918
5.6 1004
5.7 1266
5.8 2105
5.9 737
6 673
6.1 612
6.2 651
6.3 656
6.4 726
6.5 766
6.6 915
6.7 994
6.8 623
6.9 568
7 555
7.1 573
7.2 549
7.3 504
7.4 563
7.5 535
7.6 551
7.7 535
7.8 525
7.9 531
8 543
8.1 530
8.2 533
8.3 509
8.4 514
8.5 549
8.6 487
8.7 502
8.8 537
8.9 489
9 503
9.1 590
9.2 583
9.3 743
9.4 1217
9.5 530
9.6 487
9.7 493
9.8 497
9.9 519
10 499
10.1 485
10.2 517
10.3 487
10.4 481
10.5 456
10.6 517
10.7 548
10.8 591
10.9 685
11 1232
11.1 517
11.2 481
11.3 525
11.4 637
11.5 824
11.6 486
11.7 474
11.8 506
11.9 470
12 487
12.1 508
12.2 494
12.3 471
12.4 511
12.5 469
12.6 482
12.7 478
12.8 481
12.9 479
13 527
13.1 515
13.2 590
13.3 568
13.4 506
13.5 529
13.6 489
13.7 514
13.8 471
13.9 569
14 489
14.1 522
14.2 527
14.3 530
14.4 590
14.5 543
14.6 537
14.7 541
14.8 573
14.9 549
15 572
15.1 554
15.2 570
15.3 600
15.4 596
15.5 535
15.6 619
15.7 596
15.8 620
15.9 598
16 572
16.1 578
16.2 593
16.3 646
16.4 686
16.5 629
16.6 684
16.7 637
16.8 680
16.9 669
17 697
17.1 734
17.2 837
17.3 699
17.4 724
17.5 709
17.6 752
17.7 745
17.8 767
17.9 783
18 773
18.1 755
18.2 798
18.3 758
18.4 803
18.5 829
18.6 814
18.7 831
18.8 818
18.9 858
19 872
19.1 814
19.2 897
19.3 934
19.4 908
19.5 1028
19.6 1370
19.7 1096
19.8 1081
19.9 1666
20 1007
20.1 940
20.2 960
20.3 930
20.4 991
20.5 942
20.6 1017
20.7 943
20.8 912
20.9 1001
21 1028
21.1 1027
21.2 1013
21.3 969
21.4 974
21.5 969
21.6 1057
21.7 1134
21.8 1174
21.9 1058
22 1040
22.1 961
22.2 1068
22.3 1044
22.4 992
22.5 1045
22.6 1112
22.7 1049
22.8 1038
22.9 1095
23 1193
23.1 1090
23.2 1087
23.3 1078
23.4 1018
23.5 1044
23.6 1149
23.7 1687
23.8 1227
23.9 1139
24 1140
24.1 1050
24.2 1004
24.3 955
24.4 1066
24.5 1044
24.6 1009
24.7 1065
24.8 1198
24.9 1341
25 1041
25.1 996
25.2 1000
25.3 1085
25.4 1086
25.5 1635
25.6 1319
25.7 980
25.8 1034
25.9 1002
26 1020
26.1 971
26.2 1057
26.3 966
26.4 1002
26.5 1015
26.6 1416
26.7 1092
26.8 944
26.9 934
27 951
27.1 952
27.2 998
27.3 962
27.4 1385
27.5 1210
27.6 953
27.7 914
27.8 895
27.9 931
28 954
28.1 903
28.2 1050
28.3 997
28.4 894
28.5 905
28.6 901
28.7 965
28.8 1250
28.9 1186
29 1195
29.1 1065
29.2 952
29.3 954
29.4 911
29.5 929
29.6 916
29.7 968
29.8 892
29.9 892
30 903