File: xrd-UiO-67/pxrddata/3-2.ASC
3 2146
3.1 1617
3.2 1458
3.3 1351
3.4 1284
3.5 1191
3.6 1159
3.7 1102
3.8 1038
3.9 1005
4 990
4.1 934
4.2 949
4.3 962
4.4 860
4.5 847
4.6 770
4.7 788
4.8 807
4.9 813
5 832
5.1 851
5.2 854
5.3 943
5.4 995
5.5 1131
5.6 1330
5.7 1724
5.8 3174
5.9 923
6 854
6.1 794
6.2 789
6.3 854
6.4 874
6.5 1004
6.6 1324
6.7 2355
6.8 765
6.9 725
7 653
7.1 676
7.2 681
7.3 646
7.4 634
7.5 663
7.6 679
7.7 633
7.8 698
7.9 683
8 640
8.1 686
8.2 642
8.3 655
8.4 696
8.5 649
8.6 709
8.7 720
8.8 672
8.9 706
9 709
9.1 771
9.2 869
9.3 1077
9.4 1838
9.5 780
9.6 706
9.7 731
9.8 659
9.9 724
10 692
10.1 659
10.2 736
10.3 733
10.4 711
10.5 747
10.6 736
10.7 832
10.8 875
10.9 1067
11 1832
11.1 883
11.2 781
11.3 818
11.4 919
11.5 1359
11.6 767
11.7 724
11.8 765
11.9 758
12 791
12.1 770
12.2 778
12.3 806
12.4 792
12.5 786
12.6 764
12.7 790
12.8 781
12.9 798
13 810
13.1 819
13.2 902
13.3 1121
13.4 859
13.5 805
13.6 834
13.7 844
13.8 853
13.9 860
14 847
14.1 942
14.2 903
14.3 977
14.4 1055
14.5 1094
14.6 970
14.7 991
14.8 985
14.9 1017
15 1025
15.1 1021
15.2 1012
15.3 1075
15.4 1062
15.5 1093
15.6 1116
15.7 1189
15.8 1093
15.9 1223
16 1219
16.1 1201
16.2 1307
16.3 1345
16.4 1276
16.5 1338
16.6 1367
16.7 1382
16.8 1384
16.9 1473
17 1431
17.1 1463
17.2 1627
17.3 1597
17.4 1542
17.5 1614
17.6 1614
17.7 1643
17.8 1692
17.9 1697
18 1746
18.1 1781
18.2 1703
18.3 1885
18.4 1845
18.5 1817
18.6 1850
18.7 1867
18.8 1993
18.9 1968
19 2000
19.1 2092
19.2 2139
19.3 2112
19.4 2255
19.5 2233
19.6 2805
19.7 2684
19.8 2508
19.9 3241
20 2562
20.1 2214
20.2 2180
20.3 2187
20.4 2315
20.5 2284
20.6 2374
20.7 2242
20.8 2313
20.9 2318
21 2298
21.1 2212
21.2 2302
21.3 2307
21.4 2305
21.5 2326
21.6 2368
21.7 2489
21.8 2718
21.9 2436
22 2310
22.1 2352
22.2 2260
22.3 2303
22.4 2260
22.5 2231
22.6 2276
22.7 2223
22.8 2172
22.9 2257
23 2349
23.1 2234
23.2 2205
23.3 2202
23.4 2179
23.5 2214
23.6 2275
23.7 2815
23.8 2694
23.9 2246
24 2328
24.1 1971
24.2 2035
24.3 2016
24.4 2067
24.5 2021
24.6 1968
24.7 1995
24.8 2284
24.9 2689
25 2088
25.1 2010
25.2 2094
25.3 1998
25.4 2009
25.5 2605
25.6 2650
25.7 1963
25.8 1848
25.9 1875
26 1891
26.1 1813
26.2 1842
26.3 1820
26.4 1807
26.5 1849
26.6 2411
26.7 2135
26.8 1840
26.9 1809
27 1739
27.1 1752
27.2 1839
27.3 1846
27.4 2146
27.5 2334
27.6 1653
27.7 1628
27.8 1620
27.9 1677
28 1682
28.1 1681
28.2 1756
28.3 1914
28.4 1655
28.5 1670
28.6 1587
28.7 1693
28.8 1894
28.9 2147
29 1960
29.1 2018
29.2 1582
29.3 1557
29.4 1501
29.5 1554
29.6 1507
29.7 1434
29.8 1494
29.9 1498
30 1456