File: xrd-UiO-67/pxrddata/3-4.ASC
3 2457
3.1 1790
3.2 1644
3.3 1595
3.4 1439
3.5 1263
3.6 1239
3.7 1200
3.8 1095
3.9 1046
4 1032
4.1 966
4.2 908
4.3 900
4.4 896
4.5 832
4.6 846
4.7 847
4.8 805
4.9 826
5 804
5.1 861
5.2 891
5.3 879
5.4 961
5.5 1103
5.6 1283
5.7 1966
5.8 3277
5.9 811
6 740
6.1 716
6.2 727
6.3 742
6.4 831
6.5 1056
6.6 1538
6.7 1554
6.8 704
6.9 684
7 604
7.1 658
7.2 618
7.3 618
7.4 653
7.5 642
7.6 638
7.7 597
7.8 576
7.9 616
8 626
8.1 603
8.2 580
8.3 586
8.4 614
8.5 639
8.6 610
8.7 601
8.8 574
8.9 614
9 638
9.1 664
9.2 768
9.3 1002
9.4 1563
9.5 621
9.6 589
9.7 636
9.8 605
9.9 596
10 558
10.1 597
10.2 535
10.3 580
10.4 600
10.5 617
10.6 606
10.7 690
10.8 781
10.9 947
11 1550
11.1 674
11.2 638
11.3 704
11.4 850
11.5 1159
11.6 672
11.7 663
11.8 613
11.9 563
12 592
12.1 609
12.2 658
12.3 668
12.4 616
12.5 588
12.6 674
12.7 592
12.8 640
12.9 654
13 632
13.1 700
13.2 719
13.3 760
13.4 651
13.5 670
13.6 704
13.7 715
13.8 667
13.9 708
14 696
14.1 728
14.2 721
14.3 758
14.4 852
14.5 833
14.6 809
14.7 781
14.8 798
14.9 770
15 771
15.1 818
15.2 787
15.3 798
15.4 820
15.5 855
15.6 900
15.7 868
15.8 874
15.9 898
16 920
16.1 939
16.2 949
16.3 970
16.4 971
16.5 1006
16.6 973
16.7 1064
16.8 1007
16.9 1055
17 1122
17.1 1124
17.2 1234
17.3 1163
17.4 1198
17.5 1188
17.6 1175
17.7 1200
17.8 1225
17.9 1164
18 1247
18.1 1214
18.2 1266
18.3 1319
18.4 1327
18.5 1370
18.6 1335
18.7 1352
18.8 1413
18.9 1402
19 1405
19.1 1407
19.2 1499
19.3 1485
19.4 1558
19.5 1671
19.6 2098
19.7 1679
19.8 1832
19.9 2243
20 1505
20.1 1591
20.2 1546
20.3 1510
20.4 1524
20.5 1611
20.6 1593
20.7 1482
20.8 1581
20.9 1546
21 1601
21.1 1586
21.2 1612
21.3 1565
21.4 1542
21.5 1480
21.6 1708
21.7 1698
21.8 1604
21.9 1552
22 1584
22.1 1579
22.2 1546
22.3 1553
22.4 1491
22.5 1561
22.6 1541
22.7 1560
22.8 1507
22.9 1540
23 1651
23.1 1589
23.2 1540
23.3 1533
23.4 1491
23.5 1615
23.6 1699
23.7 2054
23.8 1710
23.9 1517
24 1460
24.1 1439
24.2 1432
24.3 1463
24.4 1505
24.5 1438
24.6 1458
24.7 1522
24.8 1795
24.9 1691
25 1425
25.1 1420
25.2 1456
25.3 1509
25.4 1553
25.5 2020
25.6 1611
25.7 1495
25.8 1312
25.9 1397
26 1406
26.1 1366
26.2 1379
26.3 1385
26.4 1342
26.5 1482
26.6 1797
26.7 1415
26.8 1266
26.9 1352
27 1280
27.1 1301
27.2 1364
27.3 1455
27.4 1725
27.5 1428
27.6 1303
27.7 1222
27.8 1277
27.9 1224
28 1341
28.1 1310
28.2 1408
28.3 1346
28.4 1191
28.5 1230
28.6 1265
28.7 1362
28.8 1666
28.9 1554
29 1625
29.1 1353
29.2 1166
29.3 1149
29.4 1205
29.5 1212
29.6 1182
29.7 1205
29.8 1185
29.9 1160
30 1158