File: xrd-UiO-67/pxrddata/35-15.ASC
3 2481
3.06 2098
3.12 1893
3.18 1740
3.24 1797
3.3 1690
3.36 1629
3.42 1699
3.48 1616
3.54 1593
3.6 1615
3.66 1646
3.72 1652
3.78 1704
3.84 1747
3.9 1748
3.96 1854
4.02 2013
4.08 2177
4.14 2045
4.2 1632
4.26 1447
4.32 1326
4.38 1349
4.44 1303
4.5 1307
4.56 1355
4.62 1361
4.68 1385
4.74 1464
4.8 1509
4.86 1469
4.92 1664
4.98 1780
5.04 1978
5.1 2049
5.16 2337
5.22 2713
5.28 3083
5.34 4037
5.4 5528
5.46 4407
5.52 3734
5.58 4087
5.64 4753
5.7 6262
5.76 9244
5.82 5083
5.88 1921
5.94 1567
6 1277
6.06 1284
6.12 1237
6.18 1236
6.24 1120
6.3 1137
6.36 1151
6.42 1236
6.48 1286
6.54 1456
6.6 1654
6.66 1698
6.72 1600
6.78 1467
6.84 1146
6.9 934
6.96 969
7.02 890
7.08 940
7.14 931
7.2 942
7.26 874
7.32 913
7.38 906
7.44 869
7.5 912
7.56 851
7.62 848
7.68 931
7.74 869
7.8 861
7.86 890
7.92 936
7.98 945
8.04 952
8.1 981
8.16 949
8.22 901
8.28 847
8.34 856
8.4 877
8.46 909
8.52 823
8.58 906
8.64 890
8.7 820
8.76 853
8.82 917
8.88 938
8.94 982
9 1038
9.06 1117
9.12 1185
9.18 1452
9.24 1749
9.3 2526
9.36 2596
9.42 1145
9.48 931
9.54 888
9.6 879
9.66 932
9.72 956
9.78 961
9.84 916
9.9 891
9.96 943
10.02 970
10.08 1096
10.14 1243
10.2 1239
10.26 974
10.32 892
10.38 919
10.44 867
10.5 881
10.56 925
10.62 1021
10.68 1096
10.74 1301
10.8 1398
10.86 1424
10.92 1703
10.98 1835
11.04 1066
11.1 954
11.16 872
11.22 890
11.28 860
11.34 989
11.4 1025
11.46 1240
11.52 1146
11.58 906
11.64 851
11.7 867
11.76 824
11.82 790
11.88 770
11.94 849
12 844
12.06 870
12.12 891
12.18 1026
12.24 998
12.3 885
12.36 859
12.42 846
12.48 863
12.54 771
12.6 871
12.66 844
12.72 841
12.78 833
12.84 871
12.9 791
12.96 835
13.02 821
13.08 873
13.14 827
13.2 868
13.26 962
13.32 883
13.38 840
13.44 932
13.5 894
13.56 850
13.62 803
13.68 841
13.74 816
13.8 824
13.86 832
13.92 832
13.98 814
14.04 848
14.1 820
14.16 893
14.22 916
14.28 951
14.34 998
14.4 962
14.46 882
14.52 877
14.58 846
14.64 876
14.7 892
14.76 976
14.82 939
14.88 902
14.94 856
15 930
15.06 924
15.12 916
15.18 922
15.24 993
15.3 930
15.36 930
15.42 925
15.48 893
15.54 974
15.6 925
15.66 914
15.72 964
15.78 940
15.84 944
15.9 885
15.96 986
16.02 968
16.08 1002
16.14 1011
16.2 1045
16.26 1117
16.32 1021
16.38 1063
16.44 1007
16.5 978
16.56 972
16.62 1004
16.68 1040
16.74 1058
16.8 1051
16.86 1072
16.92 1157
16.98 1357
17.04 1163
17.1 1097
17.16 1130
17.22 1163
17.28 1171
17.34 1140
17.4 1133
17.46 1115
17.52 1156
17.58 1132
17.64 1137
17.7 1162
17.76 1230
17.82 1179
17.88 1194
17.94 1217
18 1241
18.06 1233
18.12 1185
18.18 1219
18.24 1214
18.3 1206
18.36 1217
18.42 1232
18.48 1212
18.54 1236
18.6 1386
18.66 1360
18.72 1396
18.78 1381
18.84 1358
18.9 1365
18.96 1333
19.02 1463
19.08 1480
19.14 1507
19.2 1439
19.26 1448
19.32 1425
19.38 1487
19.44 1547
19.5 1610
19.56 1622
19.62 1471
19.68 1479
19.74 1479
19.8 1463
19.86 1682
19.92 1512
19.98 1440
20 1429