File: xrd-UiO-67/pxrddata/35-10.ASC
3 2357
3.06 2045
3.12 1778
3.18 1739
3.24 1610
3.3 1504
3.36 1500
3.42 1441
3.48 1424
3.54 1401
3.6 1354
3.66 1294
3.72 1318
3.78 1242
3.84 1228
3.9 1294
3.96 1240
4.02 1157
4.08 1107
4.14 1077
4.2 1132
4.26 1107
4.32 1068
4.38 1091
4.44 1061
4.5 1036
4.56 985
4.62 1068
4.68 960
4.74 981
4.8 962
4.86 1015
4.92 937
4.98 956
5.04 928
5.1 984
5.16 986
5.22 944
5.28 901
5.34 999
5.4 877
5.46 968
5.52 928
5.58 923
5.64 849
5.7 928
5.76 835
5.82 854
5.88 849
5.94 842
6 763
6.06 784
6.12 753
6.18 817
6.24 786
6.3 745
6.36 789
6.42 769
6.48 741
6.54 702
6.6 745
6.66 745
6.72 793
6.78 746
6.84 757
6.9 702
6.96 717
7.02 728
7.08 680
7.14 699
7.2 704
7.26 740
7.32 658
7.38 669
7.44 718
7.5 709
7.56 686
7.62 718
7.68 661
7.74 688
7.8 665
7.86 703
7.92 731
7.98 643
8.04 667
8.1 645
8.16 648
8.22 635
8.28 666
8.34 681
8.4 629
8.46 613
8.52 641
8.58 634
8.64 641
8.7 624
8.76 635
8.82 647
8.88 569
8.94 620
9 652
9.06 609
9.12 599
9.18 674
9.24 598
9.3 654
9.36 639
9.42 612
9.48 640
9.54 628
9.6 685
9.66 628
9.72 622
9.78 597
9.84 620
9.9 642
9.96 597
10.02 594
10.08 586
10.14 600
10.2 601
10.26 637
10.32 600
10.38 584
10.44 549
10.5 547
10.56 624
10.62 600
10.68 582
10.74 581
10.8 606
10.86 599
10.92 560
10.98 599
11.04 593
11.1 563
11.16 585
11.22 565
11.28 610
11.34 560
11.4 561
11.46 577
11.52 565
11.58 594
11.64 570
11.7 558
11.76 591
11.82 586
11.88 572
11.94 568
12 564
12.06 566
12.12 562
12.18 555
12.24 573
12.3 605
12.36 596
12.42 569
12.48 597
12.54 627
12.6 599
12.66 609
12.72 607
12.78 577
12.84 612
12.9 609
12.96 568
13.02 638
13.08 601
13.14 615
13.2 597
13.26 642
13.32 621
13.38 606
13.44 584
13.5 652
13.56 570
13.62 633
13.68 617
13.74 591
13.8 644
13.86 610
13.92 596
13.98 624
14.04 638
14.1 615
14.16 665
14.22 613
14.28 688
14.34 663
14.4 640
14.46 628
14.52 668
14.58 643
14.64 640
14.7 659
14.76 677
14.82 711
14.88 693
14.94 683
15 677
15.06 630
15.12 689
15.18 674
15.24 731
15.3 761
15.36 718
15.42 724
15.48 742
15.54 721
15.6 710
15.66 698
15.72 710
15.78 778
15.84 734
15.9 730
15.96 777
16.02 773
16.08 761
16.14 833
16.2 735
16.26 829
16.32 783
16.38 755
16.44 788
16.5 809
16.56 788
16.62 841
16.68 892
16.74 857
16.8 887
16.86 935
16.92 1099
16.98 1332
17.04 1501
17.1 1307
17.16 955
17.22 942
17.28 869
17.34 941
17.4 950
17.46 874
17.52 896
17.58 912
17.64 895
17.7 889
17.76 947
17.82 874
17.88 934
17.94 1040
18 978
18.06 938
18.12 1000
18.18 1019
18.24 1054
18.3 975
18.36 1037
18.42 966
18.48 1017
18.54 1014
18.6 1046
18.66 1100
18.72 1051
18.78 1062
18.84 1043
18.9 1130
18.96 1029
19.02 1055
19.08 1152
19.14 1087
19.2 1189
19.26 1158
19.32 1141
19.38 1142
19.44 1178
19.5 1137
19.56 1236
19.62 1205
19.68 1181
19.74 1171
19.8 1284
19.86 1236
19.92 1258
19.98 1260
20 1244