File: xrd-UiO-67/pxrddata/35-14.ASC
3 2341
3.06 1977
3.12 1736
3.18 1623
3.24 1641
3.3 1522
3.36 1468
3.42 1473
3.48 1347
3.54 1316
3.6 1296
3.66 1285
3.72 1183
3.78 1211
3.84 1165
3.9 1141
3.96 1138
4.02 1159
4.08 1057
4.14 1026
4.2 1040
4.26 1102
4.32 1035
4.38 983
4.44 985
4.5 985
4.56 973
4.62 941
4.68 909
4.74 872
4.8 924
4.86 856
4.92 881
4.98 903
5.04 902
5.1 874
5.16 826
5.22 839
5.28 892
5.34 800
5.4 810
5.46 802
5.52 897
5.58 826
5.64 838
5.7 849
5.76 843
5.82 791
5.88 766
5.94 804
6 784
6.06 794
6.12 805
6.18 783
6.24 804
6.3 837
6.36 805
6.42 844
6.48 792
6.54 830
6.6 843
6.66 769
6.72 782
6.78 815
6.84 803
6.9 766
6.96 796
7.02 783
7.08 798
7.14 783
7.2 793
7.26 800
7.32 759
7.38 794
7.44 797
7.5 789
7.56 776
7.62 785
7.68 797
7.74 789
7.8 786
7.86 798
7.92 790
7.98 837
8.04 789
8.1 750
8.16 760
8.22 799
8.28 784
8.34 765
8.4 767
8.46 778
8.52 769
8.58 784
8.64 796
8.7 789
8.76 802
8.82 734
8.88 732
8.94 751
9 803
9.06 821
9.12 750
9.18 778
9.24 764
9.3 762
9.36 788
9.42 753
9.48 786
9.54 787
9.6 737
9.66 778
9.72 788
9.78 780
9.84 768
9.9 776
9.96 771
10.02 758
10.08 806
10.14 753
10.2 778
10.26 769
10.32 774
10.38 753
10.44 774
10.5 753
10.56 718
10.62 770
10.68 795
10.74 782
10.8 758
10.86 775
10.92 795
10.98 781
11.04 731
11.1 752
11.16 761
11.22 768
11.28 738
11.34 797
11.4 779
11.46 822
11.52 734
11.58 797
11.64 829
11.7 832
11.76 759
11.82 768
11.88 838
11.94 753
12 781
12.06 807
12.12 789
12.18 806
12.24 755
12.3 809
12.36 785
12.42 850
12.48 813
12.54 770
12.6 794
12.66 869
12.72 821
12.78 844
12.84 831
12.9 829
12.96 839
13.02 879
13.08 846
13.14 821
13.2 852
13.26 832
13.32 877
13.38 872
13.44 905
13.5 896
13.56 903
13.62 874
13.68 888
13.74 901
13.8 909
13.86 874
13.92 832
13.98 902
14.04 888
14.1 901
14.16 887
14.22 940
14.28 940
14.34 918
14.4 897
14.46 861
14.52 958
14.58 974
14.64 921
14.7 1019
14.76 966
14.82 966
14.88 993
14.94 997
15 990
15.06 1006
15.12 1032
15.18 993
15.24 1014
15.3 1057
15.36 1068
15.42 1091
15.48 1039
15.54 1124
15.6 1055
15.66 1049
15.72 1180
15.78 1132
15.84 1125
15.9 1130
15.96 1149
16.02 1219
16.08 1146
16.14 1214
16.2 1150
16.26 1174
16.32 1206
16.38 1217
16.44 1145
16.5 1275
16.56 1240
16.62 1290
16.68 1295
16.74 1340
16.8 1407
16.86 1495
16.92 1684
16.98 2002
17.04 2117
17.1 1825
17.16 1514
17.22 1423
17.28 1422
17.34 1476
17.4 1426
17.46 1430
17.52 1455
17.58 1415
17.64 1489
17.7 1512
17.76 1539
17.82 1527
17.88 1549
17.94 1584
18 1521
18.06 1526
18.12 1591
18.18 1686
18.24 1661
18.3 1698
18.36 1700
18.42 1621
18.48 1709
18.54 1682
18.6 1748
18.66 1797
18.72 1883
18.78 1806
18.84 1811
18.9 1862
18.96 1920
19.02 1835
19.08 1841
19.14 1841
19.2 1895
19.26 2011
19.32 1960
19.38 2017
19.44 1980
19.5 2060
19.56 2022
19.62 2082
19.68 2056
19.74 2104
19.8 2137
19.86 2121
19.92 2152
19.98 2129
20 2201