File: xrd-UiO-67/pxrddata/35-12.ASC
3 2401
3.06 1947
3.12 1787
3.18 1645
3.24 1677
3.3 1602
3.36 1503
3.42 1482
3.48 1443
3.54 1353
3.6 1371
3.66 1251
3.72 1275
3.78 1232
3.84 1219
3.9 1261
3.96 1165
4.02 1230
4.08 1090
4.14 1093
4.2 1196
4.26 1083
4.32 1018
4.38 1095
4.44 1105
4.5 1040
4.56 1099
4.62 1061
4.68 1056
4.74 1039
4.8 1023
4.86 1122
4.92 1021
4.98 1071
5.04 1061
5.1 1085
5.16 1142
5.22 1183
5.28 1281
5.34 1440
5.4 1642
5.46 1610
5.52 1390
5.58 1115
5.64 997
5.7 935
5.76 883
5.82 846
5.88 895
5.94 825
6 835
6.06 788
6.12 810
6.18 787
6.24 787
6.3 686
6.36 744
6.42 760
6.48 739
6.54 732
6.6 748
6.66 762
6.72 773
6.78 686
6.84 709
6.9 691
6.96 677
7.02 712
7.08 688
7.14 646
7.2 724
7.26 686
7.32 692
7.38 629
7.44 644
7.5 655
7.56 627
7.62 675
7.68 663
7.74 680
7.8 675
7.86 666
7.92 639
7.98 625
8.04 637
8.1 643
8.16 645
8.22 627
8.28 660
8.34 609
8.4 609
8.46 649
8.52 630
8.58 638
8.64 653
8.7 595
8.76 626
8.82 576
8.88 673
8.94 652
9 594
9.06 633
9.12 640
9.18 687
9.24 750
9.3 820
9.36 891
9.42 795
9.48 741
9.54 686
9.6 622
9.66 651
9.72 610
9.78 620
9.84 639
9.9 542
9.96 611
10.02 582
10.08 575
10.14 598
10.2 593
10.26 614
10.32 609
10.38 585
10.44 592
10.5 573
10.56 601
10.62 607
10.68 626
10.74 658
10.8 684
10.86 647
10.92 616
10.98 594
11.04 575
11.1 564
11.16 569
11.22 517
11.28 576
11.34 569
11.4 576
11.46 566
11.52 593
11.58 551
11.64 571
11.7 585
11.76 540
11.82 541
11.88 546
11.94 523
12 568
12.06 575
12.12 587
12.18 585
12.24 534
12.3 607
12.36 614
12.42 600
12.48 567
12.54 589
12.6 558
12.66 564
12.72 577
12.78 568
12.84 616
12.9 591
12.96 609
13.02 564
13.08 596
13.14 596
13.2 589
13.26 618
13.32 604
13.38 603
13.44 594
13.5 616
13.56 586
13.62 603
13.68 579
13.74 624
13.8 577
13.86 640
13.92 615
13.98 647
14.04 635
14.1 610
14.16 616
14.22 631
14.28 591
14.34 644
14.4 655
14.46 703
14.52 684
14.58 638
14.64 677
14.7 671
14.76 688
14.82 704
14.88 639
14.94 639
15 692
15.06 648
15.12 646
15.18 698
15.24 673
15.3 698
15.36 723
15.42 648
15.48 730
15.54 722
15.6 737
15.66 688
15.72 685
15.78 737
15.84 708
15.9 731
15.96 748
16.02 718
16.08 701
16.14 751
16.2 808
16.26 742
16.32 756
16.38 831
16.44 767
16.5 827
16.56 809
16.62 796
16.68 831
16.74 877
16.8 858
16.86 1010
16.92 1199
16.98 1569
17.04 1706
17.1 1242
17.16 1002
17.22 906
17.28 899
17.34 878
17.4 886
17.46 894
17.52 899
17.58 929
17.64 946
17.7 935
17.76 910
17.82 896
17.88 921
17.94 1012
18 944
18.06 932
18.12 969
18.18 963
18.24 937
18.3 963
18.36 1039
18.42 1061
18.48 989
18.54 1050
18.6 1029
18.66 1013
18.72 1033
18.78 1038
18.84 1087
18.9 1038
18.96 1094
19.02 1078
19.08 1103
19.14 1084
19.2 1074
19.26 1111
19.32 1122
19.38 1122
19.44 1265
19.5 1184
19.56 1261
19.62 1189
19.68 1188
19.74 1227
19.8 1254
19.86 1152
19.92 1187
19.98 1213
20 1236