File: xrd-UiO-67/pxrddata/35-16.ASC
3 2290
3.06 1900
3.12 1727
3.18 1581
3.24 1519
3.3 1483
3.36 1416
3.42 1448
3.48 1397
3.54 1406
3.6 1342
3.66 1309
3.72 1341
3.78 1350
3.84 1236
3.9 1265
3.96 1227
4.02 1214
4.08 1259
4.14 1211
4.2 1281
4.26 1192
4.32 1117
4.38 1189
4.44 1118
4.5 1161
4.56 1080
4.62 1210
4.68 1067
4.74 1177
4.8 1090
4.86 1142
4.92 1190
4.98 1279
5.04 1234
5.1 1362
5.16 1452
5.22 1658
5.28 1889
5.34 2136
5.4 2867
5.46 3533
5.52 2544
5.58 1952
5.64 1857
5.7 1682
5.76 1981
5.82 1866
5.88 1531
5.94 1082
6 927
6.06 881
6.12 846
6.18 837
6.24 813
6.3 814
6.36 798
6.42 832
6.48 816
6.54 814
6.6 768
6.66 811
6.72 848
6.78 812
6.84 806
6.9 758
6.96 763
7.02 754
7.08 709
7.14 712
7.2 705
7.26 704
7.32 716
7.38 717
7.44 747
7.5 753
7.56 675
7.62 737
7.68 690
7.74 684
7.8 712
7.86 706
7.92 650
7.98 705
8.04 696
8.1 715
8.16 706
8.22 732
8.28 741
8.34 640
8.4 684
8.46 692
8.52 682
8.58 736
8.64 690
8.7 655
8.76 683
8.82 677
8.88 687
8.94 725
9 696
9.06 787
9.12 751
9.18 856
9.24 1041
9.3 1242
9.36 1631
9.42 1370
9.48 904
9.54 698
9.6 751
9.66 647
9.72 747
9.78 699
9.84 685
9.9 747
9.96 744
10.02 732
10.08 801
10.14 746
10.2 820
10.26 773
10.32 721
10.38 759
10.44 711
10.5 733
10.56 727
10.62 754
10.68 815
10.74 943
10.8 1126
10.86 1105
10.92 959
10.98 955
11.04 888
11.1 774
11.16 721
11.22 723
11.28 692
11.34 715
11.4 698
11.46 778
11.52 737
11.58 776
11.64 716
11.7 710
11.76 701
11.82 714
11.88 670
11.94 724
12 701
12.06 752
12.12 717
12.18 796
12.24 821
12.3 795
12.36 721
12.42 725
12.48 732
12.54 735
12.6 702
12.66 708
12.72 743
12.78 788
12.84 679
12.9 738
12.96 720
13.02 853
13.08 788
13.14 779
13.2 779
13.26 798
13.32 808
13.38 807
13.44 828
13.5 813
13.56 793
13.62 818
13.68 801
13.74 810
13.8 797
13.86 811
13.92 793
13.98 803
14.04 790
14.1 807
14.16 849
14.22 860
14.28 932
14.34 948
14.4 858
14.46 944
14.52 834
14.58 851
14.64 812
14.7 889
14.76 846
14.82 912
14.88 910
14.94 938
15 936
15.06 874
15.12 904
15.18 980
15.24 952
15.3 956
15.36 887
15.42 941
15.48 978
15.54 878
15.6 967
15.66 920
15.72 934
15.78 1011
15.84 981
15.9 944
15.96 978
16.02 1064
16.08 1028
16.14 1034
16.2 1101
16.26 1048
16.32 1094
16.38 1090
16.44 1105
16.5 1124
16.56 1114
16.62 1091
16.68 1180
16.74 1185
16.8 1213
16.86 1286
16.92 1602
16.98 2249
17.04 2699
17.1 1694
17.16 1301
17.22 1268
17.28 1279
17.34 1286
17.4 1277
17.46 1258
17.52 1318
17.58 1286
17.64 1324
17.7 1327
17.76 1304
17.82 1301
17.88 1367
17.94 1360
18 1295
18.06 1356
18.12 1307
18.18 1359
18.24 1415
18.3 1406
18.36 1407
18.42 1408
18.48 1457
18.54 1483
18.6 1549
18.66 1571
18.72 1561
18.78 1484
18.84 1582
18.9 1532
18.96 1521
19.02 1557
19.08 1608
19.14 1714
19.2 1726
19.26 1627
19.32 1613
19.38 1751
19.44 1786
19.5 1841
19.56 1897
19.62 1837
19.68 1748
19.74 1670
19.8 1642
19.86 1792
19.92 1806
19.98 1685
20 1758