File: xrd-UiO-67/pxrddata/35-13.ASC
3 2647
3.06 2204
3.12 2041
3.18 1944
3.24 1820
3.3 1810
3.36 1725
3.42 1612
3.48 1596
3.54 1509
3.6 1458
3.66 1310
3.72 1308
3.78 1293
3.84 1205
3.9 1238
3.96 1154
4.02 1125
4.08 1114
4.14 1027
4.2 1033
4.26 1065
4.32 962
4.38 934
4.44 958
4.5 905
4.56 886
4.62 826
4.68 844
4.74 790
4.8 796
4.86 791
4.92 753
4.98 729
5.04 757
5.1 783
5.16 707
5.22 706
5.28 715
5.34 677
5.4 718
5.46 692
5.52 628
5.58 667
5.64 681
5.7 687
5.76 669
5.82 668
5.88 644
5.94 620
6 628
6.06 594
6.12 660
6.18 590
6.24 616
6.3 600
6.36 610
6.42 585
6.48 610
6.54 639
6.6 635
6.66 610
6.72 583
6.78 604
6.84 632
6.9 653
6.96 606
7.02 647
7.08 593
7.14 572
7.2 612
7.26 604
7.32 595
7.38 604
7.44 616
7.5 633
7.56 603
7.62 632
7.68 651
7.74 550
7.8 592
7.86 583
7.92 634
7.98 590
8.04 577
8.1 583
8.16 617
8.22 561
8.28 539
8.34 630
8.4 644
8.46 615
8.52 616
8.58 644
8.64 676
8.7 757
8.76 806
8.82 955
8.88 1164
8.94 1433
9 1406
9.06 1244
9.12 1029
9.18 860
9.24 763
9.3 728
9.36 683
9.42 689
9.48 638
9.54 666
9.6 678
9.66 698
9.72 743
9.78 760
9.84 861
9.9 1090
9.96 1137
10.02 1065
10.08 871
10.14 724
10.2 663
10.26 613
10.32 629
10.38 588
10.44 573
10.5 588
10.56 575
10.62 604
10.68 589
10.74 592
10.8 533
10.86 561
10.92 581
10.98 578
11.04 575
11.1 555
11.16 561
11.22 551
11.28 558
11.34 613
11.4 589
11.46 607
11.52 526
11.58 534
11.64 546
11.7 562
11.76 585
11.82 551
11.88 556
11.94 551
12 555
12.06 619
12.12 569
12.18 543
12.24 594
12.3 618
12.36 635
12.42 619
12.48 602
12.54 673
12.6 701
12.66 714
12.72 728
12.78 732
12.84 630
12.9 692
12.96 585
13.02 642
13.08 578
13.14 685
13.2 697
13.26 658
13.32 727
13.38 798
13.44 752
13.5 745
13.56 682
13.62 634
13.68 641
13.74 685
13.8 609
13.86 585
13.92 612
13.98 642
14.04 626
14.1 639
14.16 677
14.22 646
14.28 679
14.34 650
14.4 669
14.46 695
14.52 656
14.58 695
14.64 668
14.7 682
14.76 666
14.82 732
14.88 670
14.94 699
15 747
15.06 717
15.12 701
15.18 772
15.24 733
15.3 704
15.36 752
15.42 704
15.48 767
15.54 747
15.6 768
15.66 751
15.72 774
15.78 768
15.84 729
15.9 739
15.96 774
16.02 711
16.08 758
16.14 762
16.2 800
16.26 862
16.32 757
16.38 818
16.44 843
16.5 842
16.56 853
16.62 878
16.68 886
16.74 942
16.8 959
16.86 1113
16.92 1332
16.98 1621
17.04 1553
17.1 1377
17.16 1219
17.22 966
17.28 914
17.34 979
17.4 905
17.46 970
17.52 900
17.58 978
17.64 979
17.7 1029
17.76 1044
17.82 1058
17.88 1050
17.94 1007
18 1059
18.06 1071
18.12 1015
18.18 1024
18.24 1122
18.3 1122
18.36 1097
18.42 1078
18.48 1189
18.54 1140
18.6 1139
18.66 1179
18.72 1121
18.78 1238
18.84 1136
18.9 1219
18.96 1200
19.02 1240
19.08 1157
19.14 1211
19.2 1199
19.26 1244
19.32 1239
19.38 1234
19.44 1239
19.5 1287
19.56 1311
19.62 1263
19.68 1352
19.74 1355
19.8 1428
19.86 1510
19.92 1511
19.98 1545
20 1529