File: xrd-UiO-67/pxrddata/35-28.ASC
3 3087
3.06 2643
3.12 2406
3.18 2366
3.24 2152
3.3 2042
3.36 1915
3.42 2066
3.48 1913
3.54 1803
3.6 1822
3.66 1720
3.72 1651
3.78 1599
3.84 1572
3.9 1573
3.96 1564
4.02 1421
4.08 1425
4.14 1522
4.2 1418
4.26 1466
4.32 1390
4.38 1374
4.44 1355
4.5 1402
4.56 1296
4.62 1290
4.68 1209
4.74 1268
4.8 1193
4.86 1217
4.92 1241
4.98 1201
5.04 1174
5.1 1193
5.16 1125
5.22 1145
5.28 1121
5.34 1054
5.4 1111
5.46 1080
5.52 1032
5.58 1053
5.64 978
5.7 972
5.76 963
5.82 885
5.88 913
5.94 887
6 870
6.06 893
6.12 894
6.18 858
6.24 870
6.3 867
6.36 835
6.42 825
6.48 791
6.54 816
6.6 803
6.66 795
6.72 785
6.78 774
6.84 788
6.9 763
6.96 832
7.02 790
7.08 738
7.14 698
7.2 749
7.26 756
7.32 767
7.38 740
7.44 757
7.5 725
7.56 718
7.62 754
7.68 686
7.74 698
7.8 695
7.86 693
7.92 672
7.98 720
8.04 674
8.1 704
8.16 696
8.22 689
8.28 715
8.34 720
8.4 660
8.46 657
8.52 706
8.58 679
8.64 637
8.7 677
8.76 645
8.82 660
8.88 653
8.94 701
9 704
9.06 684
9.12 681
9.18 626
9.24 668
9.3 650
9.36 661
9.42 683
9.48 678
9.54 685
9.6 687
9.66 643
9.72 651
9.78 608
9.84 670
9.9 670
9.96 660
10.02 643
10.08 635
10.14 618
10.2 640
10.26 617
10.32 624
10.38 631
10.44 618
10.5 622
10.56 665
10.62 609
10.68 632
10.74 620
10.8 636
10.86 570
10.92 617
10.98 662
11.04 634
11.1 636
11.16 605
11.22 602
11.28 653
11.34 591
11.4 631
11.46 624
11.52 636
11.58 620
11.64 609
11.7 606
11.76 628
11.82 604
11.88 618
11.94 651
12 659
12.06 623
12.12 665
12.18 639
12.24 670
12.3 613
12.36 599
12.42 631
12.48 666
12.54 655
12.6 648
12.66 652
12.72 669
12.78 686
12.84 667
12.9 682
12.96 696
13.02 744
13.08 683
13.14 682
13.2 675
13.26 695
13.32 687
13.38 700
13.44 660
13.5 725
13.56 668
13.62 772
13.68 709
13.74 706
13.8 721
13.86 706
13.92 699
13.98 731
14.04 726
14.1 732
14.16 761
14.22 722
14.28 762
14.34 708
14.4 747
14.46 787
14.52 776
14.58 755
14.64 777
14.7 753
14.76 779
14.82 791
14.88 770
14.94 801
15 762
15.06 763
15.12 779
15.18 840
15.24 822
15.3 826
15.36 830
15.42 820
15.48 861
15.54 806
15.6 862
15.66 879
15.72 891
15.78 905
15.84 825
15.9 882
15.96 857
16.02 905
16.08 911
16.14 842
16.2 855
16.26 907
16.32 967
16.38 942
16.44 939
16.5 940
16.56 938
16.62 995
16.68 952
16.74 1023
16.8 1031
16.86 1081
16.92 1253
16.98 1665
17.04 1807
17.1 1333
17.16 1063
17.22 1020
17.28 1091
17.34 1053
17.4 1051
17.46 1054
17.52 1104
17.58 1115
17.64 1103
17.7 1176
17.76 1123
17.82 1161
17.88 1096
17.94 1185
18 1148
18.06 1207
18.12 1175
18.18 1248
18.24 1143
18.3 1238
18.36 1215
18.42 1177
18.48 1289
18.54 1267
18.6 1234
18.66 1307
18.72 1317
18.78 1339
18.84 1297
18.9 1286
18.96 1333
19.02 1293
19.08 1372
19.14 1332
19.2 1384
19.26 1345
19.32 1405
19.38 1413
19.44 1389
19.5 1346
19.56 1463
19.62 1389
19.68 1354
19.74 1438
19.8 1434
19.86 1489
19.92 1483
19.98 1484
20 1540