File: xrd-UiO-67/pxrddata/35-20.ASC
3 4281
3.06 4037
3.12 3089
3.18 2937
3.24 2479
3.3 2357
3.36 2453
3.42 2261
3.48 2072
3.54 2019
3.6 1893
3.66 1835
3.72 1761
3.78 1715
3.84 1732
3.9 1671
3.96 1696
4.02 1650
4.08 1670
4.14 1763
4.2 1740
4.26 1694
4.32 1725
4.38 1713
4.44 1679
4.5 1663
4.56 1640
4.62 1501
4.68 1591
4.74 1594
4.8 1553
4.86 1677
4.92 1587
4.98 1556
5.04 1653
5.1 1653
5.16 1727
5.22 1835
5.28 1855
5.34 2057
5.4 2334
5.46 2490
5.52 1948
5.58 1871
5.64 1851
5.7 1993
5.76 2179
5.82 2114
5.88 1552
5.94 1294
6 1163
6.06 1157
6.12 1093
6.18 1105
6.24 1060
6.3 1086
6.36 1024
6.42 1040
6.48 1018
6.54 1001
6.6 974
6.66 1037
6.72 1021
6.78 1046
6.84 991
6.9 916
6.96 942
7.02 921
7.08 890
7.14 946
7.2 901
7.26 870
7.32 909
7.38 848
7.44 931
7.5 870
7.56 903
7.62 818
7.68 888
7.74 888
7.8 864
7.86 890
7.92 876
7.98 862
8.04 856
8.1 841
8.16 882
8.22 921
8.28 839
8.34 890
8.4 871
8.46 900
8.52 790
8.58 842
8.64 911
8.7 862
8.76 800
8.82 784
8.88 856
8.94 868
9 861
9.06 930
9.12 932
9.18 1019
9.24 1148
9.3 1224
9.36 1442
9.42 1049
9.48 917
9.54 864
9.6 830
9.66 865
9.72 857
9.78 885
9.84 919
9.9 857
9.96 884
10.02 907
10.08 877
10.14 951
10.2 920
10.26 909
10.32 877
10.38 824
10.44 808
10.5 876
10.56 866
10.62 934
10.68 936
10.74 961
10.8 1056
10.86 1024
10.92 1052
10.98 1058
11.04 934
11.1 863
11.16 831
11.22 843
11.28 834
11.34 834
11.4 877
11.46 851
11.52 938
11.58 859
11.64 849
11.7 854
11.76 822
11.82 862
11.88 829
11.94 840
12 854
12.06 898
12.12 845
12.18 855
12.24 900
12.3 931
12.36 883
12.42 922
12.48 906
12.54 876
12.6 852
12.66 894
12.72 846
12.78 927
12.84 873
12.9 927
12.96 875
13.02 857
13.08 914
13.14 853
13.2 958
13.26 944
13.32 909
13.38 935
13.44 1014
13.5 906
13.56 957
13.62 970
13.68 957
13.74 1024
13.8 982
13.86 953
13.92 957
13.98 1013
14.04 1017
14.1 1007
14.16 991
14.22 1047
14.28 1042
14.34 1068
14.4 1087
14.46 1100
14.52 1062
14.58 1045
14.64 983
14.7 1115
14.76 1092
14.82 1125
14.88 1101
14.94 1112
15 1076
15.06 1120
15.12 1173
15.18 1124
15.24 1164
15.3 1181
15.36 1172
15.42 1132
15.48 1181
15.54 1124
15.6 1230
15.66 1311
15.72 1183
15.78 1254
15.84 1229
15.9 1274
15.96 1273
16.02 1278
16.08 1325
16.14 1269
16.2 1346
16.26 1337
16.32 1279
16.38 1338
16.44 1388
16.5 1371
16.56 1421
16.62 1451
16.68 1455
16.74 1470
16.8 1506
16.86 1637
16.92 1875
16.98 2303
17.04 1834
17.1 1547
17.16 1561
17.22 1498
17.28 1639
17.34 1592
17.4 1607
17.46 1520
17.52 1704
17.58 1664
17.64 1662
17.7 1693
17.76 1675
17.82 1644
17.88 1709
17.94 1667
18 1723
18.06 1649
18.12 1747
18.18 1739
18.24 1856
18.3 1793
18.36 1824
18.42 1859
18.48 1809
18.54 1833
18.6 1901
18.66 1946
18.72 1886
18.78 1905
18.84 1878
18.9 1992
18.96 1938
19.02 2017
19.08 2059
19.14 1979
19.2 2012
19.26 2049
19.32 2108
19.38 2016
19.44 2121
19.5 2222
19.56 2102
19.62 2123
19.68 2107
19.74 2044
19.8 2221
19.86 2111
19.92 2146
19.98 2192
20 2170