File: xrd-UiO-67/pxrddata/35-24.ASC
3 2390
3.1 1771
3.2 1626
3.3 1505
3.4 1333
3.5 1317
3.6 1206
3.7 1186
3.8 1144
3.9 1142
4 1081
4.1 1032
4.2 1098
4.3 994
4.4 973
4.5 987
4.6 926
4.7 917
4.8 918
4.9 921
5 876
5.1 903
5.2 865
5.3 859
5.4 961
5.5 883
5.6 857
5.7 869
5.8 811
5.9 781
6 710
6.1 648
6.2 647
6.3 622
6.4 658
6.5 614
6.6 631
6.7 579
6.8 594
6.9 611
7 559
7.1 604
7.2 614
7.3 597
7.4 612
7.5 591
7.6 597
7.7 605
7.8 563
7.9 605
8 563
8.1 590
8.2 597
8.3 592
8.4 541
8.5 556
8.6 560
8.7 579
8.8 583
8.9 565
9 557
9.1 552
9.2 560
9.3 592
9.4 551
9.5 558
9.6 527
9.7 582
9.8 515
9.9 549
10 526
10.1 557
10.2 575
10.3 574
10.4 570
10.5 521
10.6 543
10.7 529
10.8 573
10.9 574
11 526
11.1 532
11.2 537
11.3 493
11.4 546
11.5 520
11.6 522
11.7 513
11.8 525
11.9 534
12 487
12.1 520
12.2 551
12.3 520
12.4 529
12.5 519
12.6 580
12.7 498
12.8 533
12.9 556
13 496
13.1 544
13.2 557
13.3 531
13.4 547
13.5 575
13.6 561
13.7 560
13.8 564
13.9 552
14 548
14.1 566
14.2 561
14.3 601
14.4 588
14.5 557
14.6 579
14.7 584
14.8 606
14.9 573
15 603
15.1 595
15.2 573
15.3 595
15.4 577
15.5 598
15.6 573
15.7 641
15.8 628
15.9 638
16 634
16.1 651
16.2 650
16.3 670
16.4 697
16.5 683
16.6 746
16.7 747
16.8 723
16.9 859
17 1278
17.1 959
17.2 735
17.3 757
17.4 755
17.5 759
17.6 784
17.7 829
17.8 804
17.9 831
18 843
18.1 794
18.2 857
18.3 837
18.4 841
18.5 839
18.6 879
18.7 916
18.8 906
18.9 882
19 868
19.1 956
19.2 924
19.3 972
19.4 988
19.5 926
19.6 1000
19.7 1059
19.8 1005
19.9 1002
20 973
20.1 1077
20.2 1030
20.3 1034
20.4 1071
20.5 1036
20.6 1098
20.7 1103
20.8 1097
20.9 1086
21 1053
21.1 1119
21.2 1138
21.3 1046
21.4 1069
21.5 1093
21.6 1153
21.7 1096
21.8 1121
21.9 1130
22 1171
22.1 1153
22.2 1139
22.3 1086
22.4 1124
22.5 1148
22.6 1170
22.7 1105
22.8 1148
22.9 1185
23 1195
23.1 1134
23.2 1114
23.3 1161
23.4 1106
23.5 1115
23.6 1129
23.7 1118
23.8 1147
23.9 1151
24 1149
24.1 1152
24.2 1155
24.3 1084
24.4 1123
24.5 1145
24.6 1113
24.7 1105
24.8 1131
24.9 1184
25 1089
25.1 1068
25.2 1071
25.3 1158
25.4 1129
25.5 1057
25.6 1071
25.7 1064
25.8 1085
25.9 1056
26 1061
26.1 1029
26.2 1041
26.3 1050
26.4 1025
26.5 1037
26.6 1009
26.7 992
26.8 1057
26.9 1086
27 1040
27.1 1040
27.2 1000
27.3 1003
27.4 1009
27.5 1045
27.6 997
27.7 934
27.8 1003
27.9 989
28 953
28.1 980
28.2 1047
28.3 973
28.4 926
28.5 910
28.6 946
28.7 985
28.8 944
28.9 844
29 939
29.1 925
29.2 986
29.3 931
29.4 955
29.5 943
29.6 887
29.7 831
29.8 905
29.9 904
30 951