File: xrd-UiO-67/pxrddata/35-21.ASC
3 2262
3.06 1856
3.12 1805
3.18 1590
3.24 1585
3.3 1527
3.36 1451
3.42 1502
3.48 1374
3.54 1354
3.6 1455
3.66 1411
3.72 1431
3.78 1415
3.84 1459
3.9 1474
3.96 1456
4.02 1494
4.08 1536
4.14 1626
4.2 1530
4.26 1530
4.32 1420
4.38 1625
4.44 1532
4.5 1509
4.56 1555
4.62 1561
4.68 1591
4.74 1619
4.8 1619
4.86 1611
4.92 1649
4.98 1699
5.04 1643
5.1 1632
5.16 1727
5.22 1697
5.28 1637
5.34 1690
5.4 1786
5.46 2014
5.52 1672
5.58 1702
5.64 1729
5.7 1787
5.76 2019
5.82 2595
5.88 1494
5.94 1215
6 1204
6.06 1070
6.12 1075
6.18 1128
6.24 1027
6.3 998
6.36 1009
6.42 978
6.48 914
6.54 964
6.6 973
6.66 1086
6.72 1018
6.78 899
6.84 936
6.9 814
6.96 813
7.02 816
7.08 808
7.14 744
7.2 792
7.26 747
7.32 807
7.38 737
7.44 761
7.5 772
7.56 747
7.62 757
7.68 731
7.74 741
7.8 784
7.86 736
7.92 756
7.98 750
8.04 752
8.1 766
8.16 765
8.22 746
8.28 743
8.34 704
8.4 734
8.46 676
8.52 754
8.58 698
8.64 705
8.7 694
8.76 764
8.82 726
8.88 721
8.94 703
9 796
9.06 708
9.12 811
9.18 804
9.24 848
9.3 877
9.36 1110
9.42 974
9.48 768
9.54 800
9.6 743
9.66 775
9.72 714
9.78 773
9.84 687
9.9 688
9.96 707
10.02 712
10.08 762
10.14 713
10.2 842
10.26 793
10.32 732
10.38 714
10.44 700
10.5 671
10.56 704
10.62 751
10.68 686
10.74 800
10.8 841
10.86 837
10.92 810
10.98 995
11.04 970
11.1 729
11.16 665
11.22 717
11.28 672
11.34 775
11.4 690
11.46 737
11.52 843
11.58 825
11.64 753
11.7 667
11.76 729
11.82 679
11.88 690
11.94 729
12 732
12.06 706
12.12 732
12.18 714
12.24 727
12.3 729
12.36 715
12.42 729
12.48 713
12.54 721
12.6 706
12.66 714
12.72 701
12.78 713
12.84 668
12.9 685
12.96 692
13.02 769
13.08 753
13.14 702
13.2 728
13.26 727
13.32 722
13.38 737
13.44 712
13.5 731
13.56 719
13.62 725
13.68 758
13.74 777
13.8 767
13.86 756
13.92 748
13.98 756
14.04 751
14.1 760
14.16 750
14.22 791
14.28 770
14.34 782
14.4 747
14.46 808
14.52 794
14.58 776
14.64 830
14.7 768
14.76 775
14.82 762
14.88 912
14.94 789
15 806
15.06 842
15.12 862
15.18 816
15.24 841
15.3 871
15.36 847
15.42 868
15.48 829
15.54 871
15.6 844
15.66 879
15.72 881
15.78 868
15.84 923
15.9 857
15.96 881
16.02 872
16.08 892
16.14 866
16.2 947
16.26 880
16.32 971
16.38 960
16.44 966
16.5 921
16.56 954
16.62 988
16.68 1030
16.74 1024
16.8 985
16.86 1038
16.92 1039
16.98 1118
17.04 1084
17.1 1053
17.16 1062
17.22 1099
17.28 1089
17.34 1075
17.4 1111
17.46 1140
17.52 1161
17.58 1066
17.64 1149
17.7 1158
17.76 1155
17.82 1189
17.88 1158
17.94 1194
18 1229
18.06 1182
18.12 1224
18.18 1208
18.24 1189
18.3 1212
18.36 1267
18.42 1244
18.48 1202
18.54 1241
18.6 1292
18.66 1344
18.72 1366
18.78 1318
18.84 1415
18.9 1324
18.96 1307
19.02 1401
19.08 1389
19.14 1549
19.2 1437
19.26 1459
19.32 1406
19.38 1392
19.44 1421
19.5 1492
19.56 1542
19.62 1553
19.68 1495
19.74 1427
19.8 1430
19.86 1536
19.92 1628
19.98 1506
20 1462