File: xrd-UiO-67/pxrddata/35-32.ASC
3 2103
3.06 1759
3.12 1603
3.18 1519
3.24 1462
3.3 1463
3.36 1377
3.42 1357
3.48 1309
3.54 1307
3.6 1221
3.66 1279
3.72 1201
3.78 1143
3.84 1213
3.9 1157
3.96 1170
4.02 1145
4.08 1118
4.14 1145
4.2 1138
4.26 1130
4.32 1092
4.38 1169
4.44 1074
4.5 1043
4.56 1104
4.62 1098
4.68 1087
4.74 1006
4.8 1176
4.86 1096
4.92 1149
4.98 1167
5.04 1216
5.1 1301
5.16 1331
5.22 1451
5.28 1584
5.34 1733
5.4 2154
5.46 2578
5.52 2659
5.58 2107
5.64 1804
5.7 1795
5.76 1999
5.82 2075
5.88 1773
5.94 1374
6 1078
6.06 967
6.12 805
6.18 766
6.24 763
6.3 740
6.36 763
6.42 751
6.48 734
6.54 727
6.6 756
6.66 763
6.72 775
6.78 770
6.84 809
6.9 738
6.96 721
7.02 690
7.08 723
7.14 690
7.2 699
7.26 677
7.32 619
7.38 686
7.44 671
7.5 657
7.56 640
7.62 646
7.68 596
7.74 643
7.8 635
7.86 727
7.92 714
7.98 632
8.04 653
8.1 730
8.16 669
8.22 658
8.28 669
8.34 651
8.4 641
8.46 676
8.52 695
8.58 667
8.64 683
8.7 664
8.76 704
8.82 675
8.88 721
8.94 693
9 737
9.06 768
9.12 811
9.18 970
9.24 1087
9.3 1265
9.36 1652
9.42 1447
9.48 1027
9.54 777
9.6 752
9.66 672
9.72 695
9.78 663
9.84 731
9.9 732
9.96 739
10.02 771
10.08 729
10.14 754
10.2 852
10.26 770
10.32 804
10.38 751
10.44 772
10.5 709
10.56 736
10.62 767
10.68 928
10.74 1018
10.8 1200
10.86 1280
10.92 1104
10.98 1040
11.04 1022
11.1 855
11.16 804
11.22 727
11.28 720
11.34 729
11.4 739
11.46 771
11.52 777
11.58 816
11.64 745
11.7 771
11.76 672
11.82 736
11.88 714
11.94 707
12 723
12.06 699
12.12 716
12.18 788
12.24 769
12.3 769
12.36 768
12.42 757
12.48 732
12.54 723
12.6 713
12.66 696
12.72 747
12.78 761
12.84 729
12.9 787
12.96 731
13.02 753
13.08 789
13.14 765
13.2 803
13.26 797
13.32 795
13.38 811
13.44 739
13.5 814
13.56 802
13.62 808
13.68 767
13.74 847
13.8 855
13.86 809
13.92 787
13.98 850
14.04 778
14.1 835
14.16 839
14.22 797
14.28 891
14.34 913
14.4 922
14.46 873
14.52 911
14.58 868
14.64 848
14.7 833
14.76 935
14.82 888
14.88 900
14.94 869
15 905
15.06 875
15.12 891
15.18 960
15.24 866
15.3 869
15.36 961
15.42 923
15.48 982
15.54 967
15.6 952
15.66 942
15.72 962
15.78 958
15.84 940
15.9 968
15.96 1024
16.02 965
16.08 969
16.14 1025
16.2 1124
16.26 1063
16.32 1117
16.38 1084
16.44 1144
16.5 1131
16.56 1124
16.62 1084
16.68 1104
16.74 1127
16.8 1219
16.86 1138
16.92 1227
16.98 1400
17.04 1310
17.1 1199
17.16 1173
17.22 1223
17.28 1274
17.34 1202
17.4 1228
17.46 1210
17.52 1299
17.58 1299
17.64 1299
17.7 1316
17.76 1295
17.82 1307
17.88 1296
17.94 1396
18 1291
18.06 1361
18.12 1346
18.18 1307
18.24 1318
18.3 1349
18.36 1334
18.42 1311
18.48 1418
18.54 1404
18.6 1397
18.66 1484
18.72 1548
18.78 1567
18.84 1467
18.9 1567
18.96 1490
19.02 1618
19.08 1608
19.14 1659
19.2 1643
19.26 1602
19.32 1651
19.38 1712
19.44 1819
19.5 1940
19.56 1954
19.62 1827
19.68 1728
19.74 1591
19.8 1610
19.86 1625
19.92 1680
19.98 1628
20 1743