File: xrd-UiO-67/pxrddata/35-36.ASC
3 2861
3.06 2379
3.12 2116
3.18 2041
3.24 1965
3.3 1868
3.36 1807
3.42 1778
3.48 1718
3.54 1608
3.6 1583
3.66 1567
3.72 1513
3.78 1409
3.84 1445
3.9 1388
3.96 1383
4.02 1225
4.08 1310
4.14 1224
4.2 1239
4.26 1237
4.32 1233
4.38 1184
4.44 1192
4.5 1132
4.56 1168
4.62 1096
4.68 1089
4.74 1129
4.8 1073
4.86 1123
4.92 1081
4.98 1036
5.04 1150
5.1 1077
5.16 1134
5.22 1274
5.28 1301
5.34 1438
5.4 1579
5.46 1939
5.52 1495
5.58 1166
5.64 1079
5.7 1027
5.76 978
5.82 918
5.88 897
5.94 903
6 860
6.06 836
6.12 806
6.18 846
6.24 807
6.3 810
6.36 809
6.42 804
6.48 758
6.54 764
6.6 790
6.66 754
6.72 778
6.78 753
6.84 778
6.9 774
6.96 759
7.02 712
7.08 734
7.14 740
7.2 764
7.26 702
7.32 671
7.38 731
7.44 736
7.5 726
7.56 694
7.62 716
7.68 644
7.74 717
7.8 713
7.86 699
7.92 714
7.98 706
8.04 686
8.1 682
8.16 660
8.22 652
8.28 654
8.34 656
8.4 671
8.46 658
8.52 672
8.58 625
8.64 664
8.7 645
8.76 656
8.82 640
8.88 653
8.94 626
9 680
9.06 710
9.12 684
9.18 743
9.24 741
9.3 807
9.36 1000
9.42 914
9.48 712
9.54 665
9.6 700
9.66 632
9.72 686
9.78 625
9.84 634
9.9 648
9.96 587
10.02 656
10.08 631
10.14 618
10.2 621
10.26 655
10.32 600
10.38 645
10.44 628
10.5 607
10.56 638
10.62 665
10.68 682
10.74 710
10.8 771
10.86 732
10.92 656
10.98 642
11.04 633
11.1 657
11.16 607
11.22 642
11.28 569
11.34 641
11.4 579
11.46 569
11.52 581
11.58 568
11.64 595
11.7 645
11.76 630
11.82 634
11.88 611
11.94 631
12 625
12.06 596
12.12 618
12.18 663
12.24 637
12.3 637
12.36 621
12.42 632
12.48 593
12.54 628
12.6 652
12.66 633
12.72 660
12.78 627
12.84 641
12.9 642
12.96 673
13.02 657
13.08 657
13.14 686
13.2 700
13.26 654
13.32 641
13.38 636
13.44 678
13.5 640
13.56 678
13.62 660
13.68 697
13.74 661
13.8 720
13.86 661
13.92 684
13.98 686
14.04 668
14.1 672
14.16 718
14.22 694
14.28 714
14.34 769
14.4 777
14.46 680
14.52 766
14.58 665
14.64 708
14.7 730
14.76 707
14.82 739
14.88 729
14.94 761
15 779
15.06 717
15.12 772
15.18 735
15.24 725
15.3 757
15.36 806
15.42 836
15.48 780
15.54 773
15.6 831
15.66 798
15.72 802
15.78 794
15.84 813
15.9 847
15.96 831
16.02 808
16.08 857
16.14 834
16.2 833
16.26 876
16.32 867
16.38 883
16.44 872
16.5 892
16.56 880
16.62 857
16.68 904
16.74 915
16.8 948
16.86 933
16.92 1141
16.98 1267
17.04 1533
17.1 1248
17.16 1048
17.22 997
17.28 938
17.34 971
17.4 981
17.46 996
17.52 984
17.58 1001
17.64 1003
17.7 1003
17.76 1068
17.82 1075
17.88 1061
17.94 1099
18 1045
18.06 1118
18.12 1064
18.18 1036
18.24 1091
18.3 1134
18.36 1096
18.42 1133
18.48 1126
18.54 1145
18.6 1104
18.66 1221
18.72 1175
18.78 1169
18.84 1201
18.9 1153
18.96 1254
19.02 1213
19.08 1251
19.14 1214
19.2 1213
19.26 1280
19.32 1214
19.38 1303
19.44 1296
19.5 1284
19.56 1278
19.62 1284
19.68 1318
19.74 1319
19.8 1317
19.86 1257
19.92 1286
19.98 1377
20 1313