File: xrd-UiO-67/pxrddata/35-35.ASC
3 2394
3.06 1989
3.12 1840
3.18 1834
3.24 1794
3.3 1728
3.36 1633
3.42 1634
3.48 1625
3.54 1605
3.6 1640
3.66 1572
3.72 1540
3.78 1563
3.84 1578
3.9 1581
3.96 1610
4.02 1638
4.08 1650
4.14 1655
4.2 1737
4.26 1731
4.32 1773
4.38 1834
4.44 1884
4.5 1828
4.56 1945
4.62 1916
4.68 1932
4.74 1966
4.8 1885
4.86 1966
4.92 2018
4.98 2009
5.04 2009
5.1 2041
5.16 1991
5.22 2083
5.28 2124
5.34 2201
5.4 2484
5.46 2554
5.52 2000
5.58 1888
5.64 1825
5.7 1804
5.76 1701
5.82 1565
5.88 1435
5.94 1378
6 1297
6.06 1280
6.12 1185
6.18 1177
6.24 1110
6.3 1117
6.36 1108
6.42 1110
6.48 1044
6.54 1069
6.6 1048
6.66 1009
6.72 989
6.78 986
6.84 941
6.9 911
6.96 942
7.02 960
7.08 897
7.14 933
7.2 921
7.26 910
7.32 852
7.38 872
7.44 865
7.5 874
7.56 888
7.62 859
7.68 897
7.74 903
7.8 849
7.86 855
7.92 846
7.98 883
8.04 872
8.1 894
8.16 846
8.22 880
8.28 801
8.34 910
8.4 859
8.46 911
8.52 849
8.58 875
8.64 941
8.7 894
8.76 857
8.82 897
8.88 916
8.94 915
9 865
9.06 924
9.12 974
9.18 998
9.24 1053
9.3 1175
9.36 1309
9.42 976
9.48 918
9.54 895
9.6 900
9.66 883
9.72 862
9.78 901
9.84 894
9.9 908
9.96 843
10.02 874
10.08 873
10.14 870
10.2 922
10.26 850
10.32 869
10.38 910
10.44 855
10.5 883
10.56 856
10.62 912
10.68 946
10.74 1034
10.8 1043
10.86 999
10.92 951
10.98 970
11.04 862
11.1 857
11.16 871
11.22 875
11.28 872
11.34 922
11.4 879
11.46 839
11.52 898
11.58 974
11.64 887
11.7 863
11.76 869
11.82 891
11.88 852
11.94 903
12 906
12.06 920
12.12 870
12.18 914
12.24 895
12.3 907
12.36 904
12.42 921
12.48 879
12.54 857
12.6 903
12.66 896
12.72 975
12.78 943
12.84 939
12.9 907
12.96 948
13.02 887
13.08 927
13.14 1002
13.2 932
13.26 955
13.32 970
13.38 978
13.44 941
13.5 933
13.56 944
13.62 948
13.68 918
13.74 921
13.8 902
13.86 957
13.92 914
13.98 972
14.04 971
14.1 917
14.16 917
14.22 1008
14.28 953
14.34 1047
14.4 1008
14.46 977
14.52 995
14.58 991
14.64 907
14.7 986
14.76 1003
14.82 982
14.88 998
14.94 1006
15 1006
15.06 995
15.12 976
15.18 1002
15.24 1041
15.3 1027
15.36 1063
15.42 1048
15.48 1089
15.54 1032
15.6 1045
15.66 1091
15.72 1081
15.78 1117
15.84 1147
15.9 1071
15.96 1106
16.02 1065
16.08 1106
16.14 1142
16.2 1151
16.26 1140
16.32 1169
16.38 1160
16.44 1237
16.5 1199
16.56 1227
16.62 1199
16.68 1287
16.74 1211
16.8 1349
16.86 1547
16.92 1764
16.98 3800
17.04 3368
17.1 1384
17.16 1337
17.22 1301
17.28 1289
17.34 1315
17.4 1325
17.46 1419
17.52 1382
17.58 1282
17.64 1363
17.7 1381
17.76 1421
17.82 1374
17.88 1434
17.94 1332
18 1437
18.06 1362
18.12 1337
18.18 1391
18.24 1501
18.3 1462
18.36 1475
18.42 1504
18.48 1479
18.54 1579
18.6 1523
18.66 1540
18.72 1574
18.78 1503
18.84 1566
18.9 1502
18.96 1585
19.02 1592
19.08 1521
19.14 1565
19.2 1616
19.26 1627
19.32 1676
19.38 1771
19.44 1717
19.5 1709
19.56 1744
19.62 1647
19.68 1712
19.74 1679
19.8 1678
19.86 1745
19.92 1691
19.98 1742
20 1779