File: xrd-UiO-67/pxrddata/35-34.ASC
3 2625
3.06 2323
3.12 2151
3.18 2014
3.24 1827
3.3 1835
3.36 1752
3.42 1765
3.48 1740
3.54 1618
3.6 1715
3.66 1554
3.72 1566
3.78 1538
3.84 1550
3.9 1529
3.96 1457
4.02 1493
4.08 1517
4.14 1481
4.2 1421
4.26 1437
4.32 1432
4.38 1383
4.44 1439
4.5 1381
4.56 1360
4.62 1390
4.68 1325
4.74 1342
4.8 1385
4.86 1344
4.92 1370
4.98 1443
5.04 1389
5.1 1367
5.16 1454
5.22 1497
5.28 1669
5.34 1772
5.4 1986
5.46 2500
5.52 1947
5.58 1572
5.64 1457
5.7 1364
5.76 1211
5.82 1209
5.88 1125
5.94 1046
6 1037
6.06 995
6.12 944
6.18 996
6.24 942
6.3 926
6.36 908
6.42 956
6.48 861
6.54 880
6.6 893
6.66 911
6.72 818
6.78 822
6.84 826
6.9 831
6.96 789
7.02 778
7.08 842
7.14 834
7.2 793
7.26 755
7.32 788
7.38 841
7.44 770
7.5 786
7.56 782
7.62 830
7.68 771
7.74 822
7.8 763
7.86 766
7.92 769
7.98 729
8.04 684
8.1 779
8.16 736
8.22 761
8.28 762
8.34 719
8.4 778
8.46 769
8.52 708
8.58 713
8.64 730
8.7 732
8.76 698
8.82 720
8.88 736
8.94 764
9 758
9.06 777
9.12 801
9.18 858
9.24 839
9.3 965
9.36 1123
9.42 1092
9.48 832
9.54 723
9.6 747
9.66 725
9.72 722
9.78 701
9.84 714
9.9 704
9.96 667
10.02 715
10.08 718
10.14 698
10.2 713
10.26 698
10.32 737
10.38 680
10.44 670
10.5 733
10.56 691
10.62 746
10.68 772
10.74 786
10.8 896
10.86 925
10.92 804
10.98 765
11.04 678
11.1 673
11.16 697
11.22 689
11.28 692
11.34 706
11.4 709
11.46 647
11.52 647
11.58 671
11.64 709
11.7 686
11.76 714
11.82 703
11.88 715
11.94 717
12 648
12.06 717
12.12 723
12.18 705
12.24 701
12.3 749
12.36 742
12.42 701
12.48 762
12.54 696
12.6 672
12.66 718
12.72 670
12.78 703
12.84 702
12.9 737
12.96 739
13.02 743
13.08 689
13.14 735
13.2 725
13.26 749
13.32 777
13.38 759
13.44 787
13.5 712
13.56 749
13.62 778
13.68 796
13.74 783
13.8 689
13.86 744
13.92 775
13.98 820
14.04 753
14.1 746
14.16 766
14.22 795
14.28 857
14.34 805
14.4 799
14.46 812
14.52 809
14.58 825
14.64 807
14.7 849
14.76 858
14.82 830
14.88 854
14.94 853
15 816
15.06 842
15.12 792
15.18 881
15.24 844
15.3 833
15.36 923
15.42 870
15.48 897
15.54 875
15.6 895
15.66 898
15.72 898
15.78 923
15.84 929
15.9 922
15.96 939
16.02 981
16.08 917
16.14 962
16.2 936
16.26 995
16.32 983
16.38 954
16.44 1020
16.5 1030
16.56 1022
16.62 1046
16.68 1082
16.74 1075
16.8 1082
16.86 1166
16.92 1257
16.98 1478
17.04 2048
17.1 1712
17.16 1154
17.22 1142
17.28 1198
17.34 1109
17.4 1165
17.46 1216
17.52 1174
17.58 1175
17.64 1242
17.7 1146
17.76 1244
17.82 1124
17.88 1156
17.94 1202
18 1217
18.06 1199
18.12 1202
18.18 1259
18.24 1260
18.3 1287
18.36 1308
18.42 1361
18.48 1284
18.54 1324
18.6 1400
18.66 1344
18.72 1340
18.78 1420
18.84 1318
18.9 1427
18.96 1421
19.02 1438
19.08 1450
19.14 1447
19.2 1464
19.26 1479
19.32 1483
19.38 1563
19.44 1524
19.5 1627
19.56 1476
19.62 1594
19.68 1556
19.74 1591
19.8 1578
19.86 1546
19.92 1514
19.98 1599
20 1542