File: xrd-UiO-67/pxrddata/35-3.ASC
3 2664
3.06 2166
3.12 2049
3.18 1973
3.24 1852
3.3 1817
3.36 1707
3.42 1620
3.48 1596
3.54 1526
3.6 1456
3.66 1400
3.72 1416
3.78 1364
3.84 1320
3.9 1259
3.96 1252
4.02 1248
4.08 1215
4.14 1208
4.2 1106
4.26 1064
4.32 1062
4.38 1064
4.44 1056
4.5 1064
4.56 998
4.62 1025
4.68 1046
4.74 970
4.8 1024
4.86 953
4.92 993
4.98 1006
5.04 1044
5.1 1050
5.16 1073
5.22 1154
5.28 1243
5.34 1438
5.4 1710
5.46 2142
5.52 1883
5.58 1278
5.64 1174
5.7 1094
5.76 983
5.82 926
5.88 919
5.94 830
6 778
6.06 859
6.12 793
6.18 734
6.24 758
6.3 734
6.36 759
6.42 712
6.48 794
6.54 730
6.6 748
6.66 725
6.72 725
6.78 670
6.84 721
6.9 696
6.96 699
7.02 682
7.08 711
7.14 655
7.2 686
7.26 650
7.32 685
7.38 656
7.44 594
7.5 635
7.56 695
7.62 652
7.68 608
7.74 632
7.8 625
7.86 625
7.92 641
7.98 612
8.04 631
8.1 622
8.16 649
8.22 612
8.28 619
8.34 627
8.4 599
8.46 660
8.52 587
8.58 621
8.64 608
8.7 624
8.76 596
8.82 587
8.88 621
8.94 602
9 587
9.06 636
9.12 654
9.18 656
9.24 714
9.3 844
9.36 1021
9.42 1075
9.48 765
9.54 620
9.6 675
9.66 636
9.72 629
9.78 615
9.84 595
9.9 580
9.96 588
10.02 569
10.08 625
10.14 604
10.2 606
10.26 578
10.32 600
10.38 576
10.44 590
10.5 549
10.56 645
10.62 647
10.68 627
10.74 693
10.8 827
10.86 839
10.92 704
10.98 686
11.04 648
11.1 630
11.16 582
11.22 567
11.28 590
11.34 564
11.4 557
11.46 551
11.52 562
11.58 642
11.64 616
11.7 588
11.76 535
11.82 553
11.88 567
11.94 583
12 574
12.06 585
12.12 584
12.18 608
12.24 616
12.3 583
12.36 617
12.42 579
12.48 611
12.54 607
12.6 566
12.66 606
12.72 633
12.78 576
12.84 599
12.9 566
12.96 562
13.02 636
13.08 563
13.14 613
13.2 586
13.26 636
13.32 617
13.38 649
13.44 601
13.5 601
13.56 608
13.62 636
13.68 606
13.74 637
13.8 656
13.86 648
13.92 663
13.98 668
14.04 660
14.1 685
14.16 669
14.22 649
14.28 633
14.34 699
14.4 657
14.46 700
14.52 710
14.58 697
14.64 702
14.7 704
14.76 645
14.82 680
14.88 659
14.94 704
15 670
15.06 699
15.12 704
15.18 671
15.24 700
15.3 717
15.36 721
15.42 740
15.48 747
15.54 728
15.6 750
15.66 740
15.72 746
15.78 762
15.84 725
15.9 738
15.96 744
16.02 741
16.08 800
16.14 801
16.2 820
16.26 811
16.32 811
16.38 827
16.44 866
16.5 841
16.56 784
16.62 872
16.68 809
16.74 842
16.8 873
16.86 909
16.92 998
16.98 1149
17.04 1503
17.1 1356
17.16 1040
17.22 876
17.28 924
17.34 948
17.4 950
17.46 939
17.52 929
17.58 932
17.64 951
17.7 1044
17.76 952
17.82 967
17.88 966
17.94 1002
18 1001
18.06 966
18.12 1054
18.18 1010
18.24 1040
18.3 1089
18.36 1090
18.42 1041
18.48 1033
18.54 1084
18.6 1125
18.66 1142
18.72 1145
18.78 1158
18.84 1184
18.9 1127
18.96 1178
19.02 1137
19.08 1182
19.14 1143
19.2 1148
19.26 1146
19.32 1168
19.38 1277
19.44 1306
19.5 1322
19.56 1300
19.62 1335
19.68 1268
19.74 1309
19.8 1270
19.86 1269
19.92 1281
19.98 1267
20 1370