File: xrd-UiO-67/pxrddata/35-8-1.ASC
3 3095
3.06 2596
3.12 2288
3.18 2181
3.24 2121
3.3 2102
3.36 1966
3.42 1928
3.48 1788
3.54 1765
3.6 1692
3.66 1645
3.72 1600
3.78 1492
3.84 1419
3.9 1466
3.96 1341
4.02 1347
4.08 1366
4.14 1237
4.2 1263
4.26 1125
4.32 1128
4.38 1202
4.44 1093
4.5 1185
4.56 1068
4.62 1130
4.68 1109
4.74 1090
4.8 1126
4.86 1103
4.92 1066
4.98 1204
5.04 1185
5.1 1347
5.16 1480
5.22 1611
5.28 1925
5.34 2360
5.4 3357
5.46 3971
5.52 2620
5.58 2070
5.64 1779
5.7 1621
5.76 1464
5.82 1345
5.88 1173
5.94 1073
6 927
6.06 905
6.12 839
6.18 863
6.24 774
6.3 815
6.36 807
6.42 781
6.48 802
6.54 797
6.6 792
6.66 787
6.72 780
6.78 716
6.84 771
6.9 771
6.96 730
7.02 706
7.08 747
7.14 703
7.2 669
7.26 687
7.32 699
7.38 731
7.44 666
7.5 696
7.56 675
7.62 667
7.68 671
7.74 698
7.8 694
7.86 656
7.92 686
7.98 709
8.04 673
8.1 690
8.16 707
8.22 669
8.28 695
8.34 695
8.4 685
8.46 656
8.52 639
8.58 624
8.64 688
8.7 659
8.76 717
8.82 665
8.88 634
8.94 710
9 703
9.06 765
9.12 787
9.18 855
9.24 1001
9.3 1241
9.36 1602
9.42 1097
9.48 887
9.54 725
9.6 731
9.66 687
9.72 702
9.78 665
9.84 682
9.9 736
9.96 681
10.02 710
10.08 678
10.14 693
10.2 691
10.26 691
10.32 733
10.38 716
10.44 694
10.5 676
10.56 779
10.62 777
10.68 823
10.74 979
10.8 1155
10.86 1042
10.92 996
10.98 854
11.04 836
11.1 762
11.16 688
11.22 709
11.28 687
11.34 645
11.4 723
11.46 720
11.52 714
11.58 666
11.64 681
11.7 646
11.76 704
11.82 683
11.88 756
11.94 702
12 736
12.06 692
12.12 698
12.18 708
12.24 780
12.3 781
12.36 734
12.42 721
12.48 718
12.54 694
12.6 722
12.66 748
12.72 708
12.78 754
12.84 740
12.9 755
12.96 721
13.02 739
13.08 687
13.14 707
13.2 739
13.26 784
13.32 767
13.38 742
13.44 758
13.5 771
13.56 708
13.62 806
13.68 702
13.74 786
13.8 743
13.86 804
13.92 812
13.98 791
14.04 782
14.1 811
14.16 809
14.22 831
14.28 903
14.34 824
14.4 880
14.46 790
14.52 828
14.58 831
14.64 823
14.7 842
14.76 855
14.82 875
14.88 864
14.94 847
15 895
15.06 858
15.12 855
15.18 868
15.24 875
15.3 862
15.36 931
15.42 856
15.48 949
15.54 914
15.6 926
15.66 914
15.72 973
15.78 918
15.84 965
15.9 942
15.96 955
16.02 1006
16.08 1055
16.14 1039
16.2 1007
16.26 984
16.32 1029
16.38 1107
16.44 1029
16.5 1015
16.56 1063
16.62 1126
16.68 1089
16.74 1111
16.8 1156
16.86 1165
16.92 1230
16.98 1389
17.04 1451
17.1 1208
17.16 1178
17.22 1190
17.28 1184
17.34 1291
17.4 1238
17.46 1234
17.52 1163
17.58 1280
17.64 1231
17.7 1243
17.76 1282
17.82 1269
17.88 1243
17.94 1317
18 1233
18.06 1283
18.12 1289
18.18 1357
18.24 1395
18.3 1414
18.36 1415
18.42 1358
18.48 1401
18.54 1424
18.6 1408
18.66 1489
18.72 1496
18.78 1499
18.84 1509
18.9 1513
18.96 1434
19.02 1533
19.08 1555
19.14 1608
19.2 1569
19.26 1640
19.32 1567
19.38 1666
19.44 1690
19.5 1787
19.56 1767
19.62 1793
19.68 1680
19.74 1666
19.8 1717
19.86 1647
19.92 1658
19.98 1759
20 1732