File: xrd-UiO-67/pxrddata/35-9.ASC
3 3040
3.06 2685
3.12 2388
3.18 2252
3.24 2081
3.3 2080
3.36 1985
3.42 1867
3.48 1847
3.54 1830
3.6 1714
3.66 1659
3.72 1617
3.78 1630
3.84 1476
3.9 1506
3.96 1433
4.02 1370
4.08 1239
4.14 1257
4.2 1239
4.26 1169
4.32 1188
4.38 1148
4.44 1131
4.5 1048
4.56 1053
4.62 1039
4.68 1075
4.74 1088
4.8 970
4.86 1056
4.92 1011
4.98 1092
5.04 1011
5.1 1118
5.16 1140
5.22 1279
5.28 1407
5.34 1567
5.4 2125
5.46 2386
5.52 1752
5.58 1276
5.64 1090
5.7 975
5.76 881
5.82 850
5.88 821
5.94 806
6 765
6.06 797
6.12 740
6.18 770
6.24 710
6.3 709
6.36 674
6.42 695
6.48 755
6.54 692
6.6 710
6.66 669
6.72 676
6.78 687
6.84 683
6.9 677
6.96 702
7.02 656
7.08 661
7.14 636
7.2 681
7.26 625
7.32 631
7.38 637
7.44 628
7.5 650
7.56 625
7.62 627
7.68 667
7.74 654
7.8 603
7.86 626
7.92 590
7.98 620
8.04 582
8.1 620
8.16 632
8.22 604
8.28 608
8.34 658
8.4 644
8.46 572
8.52 611
8.58 611
8.64 596
8.7 630
8.76 567
8.82 601
8.88 633
8.94 593
9 591
9.06 653
9.12 659
9.18 664
9.24 773
9.3 933
9.36 1103
9.42 925
9.48 747
9.54 637
9.6 652
9.66 621
9.72 599
9.78 612
9.84 610
9.9 592
9.96 563
10.02 566
10.08 589
10.14 547
10.2 639
10.26 561
10.32 585
10.38 572
10.44 569
10.5 625
10.56 653
10.62 632
10.68 665
10.74 722
10.8 827
10.86 760
10.92 698
10.98 655
11.04 601
11.1 615
11.16 654
11.22 609
11.28 564
11.34 575
11.4 571
11.46 577
11.52 555
11.58 592
11.64 549
11.7 613
11.76 582
11.82 572
11.88 562
11.94 589
12 569
12.06 596
12.12 598
12.18 598
12.24 655
12.3 656
12.36 589
12.42 593
12.48 597
12.54 641
12.6 577
12.66 553
12.72 595
12.78 587
12.84 596
12.9 632
12.96 608
13.02 598
13.08 599
13.14 621
13.2 607
13.26 651
13.32 637
13.38 654
13.44 618
13.5 665
13.56 634
13.62 612
13.68 646
13.74 633
13.8 672
13.86 672
13.92 623
13.98 626
14.04 676
14.1 657
14.16 688
14.22 639
14.28 693
14.34 685
14.4 706
14.46 677
14.52 677
14.58 717
14.64 692
14.7 687
14.76 655
14.82 709
14.88 728
14.94 682
15 675
15.06 700
15.12 700
15.18 752
15.24 659
15.3 745
15.36 735
15.42 771
15.48 710
15.54 734
15.6 764
15.66 795
15.72 792
15.78 763
15.84 787
15.9 784
15.96 769
16.02 781
16.08 808
16.14 795
16.2 865
16.26 787
16.32 789
16.38 810
16.44 816
16.5 842
16.56 835
16.62 881
16.68 851
16.74 868
16.8 890
16.86 942
16.92 1044
16.98 1256
17.04 1392
17.1 1139
17.16 990
17.22 975
17.28 963
17.34 897
17.4 950
17.46 961
17.52 967
17.58 986
17.64 1016
17.7 1018
17.76 981
17.82 984
17.88 1003
17.94 938
18 1011
18.06 1034
18.12 1009
18.18 1016
18.24 1044
18.3 1027
18.36 1021
18.42 1040
18.48 1096
18.54 1142
18.6 1085
18.66 1097
18.72 1095
18.78 1121
18.84 1110
18.9 1161
18.96 1154
19.02 1116
19.08 1122
19.14 1156
19.2 1199
19.26 1264
19.32 1211
19.38 1321
19.44 1299
19.5 1339
19.56 1324
19.62 1290
19.68 1276
19.74 1337
19.8 1248
19.86 1304
19.92 1325
19.98 1278
20 1315