File: xrd-UiO-67/pxrddata/36-16.ASC
3 3140
3.06 2792
3.12 2485
3.18 2447
3.24 2339
3.3 2231
3.36 2177
3.42 2044
3.48 2047
3.54 1917
3.6 1909
3.66 1768
3.72 1777
3.78 1697
3.84 1662
3.9 1600
3.96 1591
4.02 1540
4.08 1559
4.14 1489
4.2 1460
4.26 1358
4.32 1295
4.38 1232
4.44 1236
4.5 1123
4.56 1103
4.62 1148
4.68 1148
4.74 1117
4.8 1111
4.86 1039
4.92 997
4.98 1105
5.04 1060
5.1 1052
5.16 1122
5.22 1169
5.28 1233
5.34 1377
5.4 1454
5.46 1374
5.52 1323
5.58 1382
5.64 1453
5.7 1580
5.76 1633
5.82 1354
5.88 946
5.94 865
6 832
6.06 780
6.12 794
6.18 705
6.24 717
6.3 745
6.36 704
6.42 704
6.48 689
6.54 709
6.6 696
6.66 701
6.72 733
6.78 726
6.84 646
6.9 660
6.96 615
7.02 619
7.08 597
7.14 631
7.2 625
7.26 604
7.32 590
7.38 558
7.44 570
7.5 620
7.56 530
7.62 573
7.68 582
7.74 553
7.8 553
7.86 609
7.92 601
7.98 539
8.04 579
8.1 559
8.16 550
8.22 564
8.28 549
8.34 523
8.4 539
8.46 535
8.52 509
8.58 514
8.64 505
8.7 498
8.76 529
8.82 520
8.88 536
8.94 533
9 558
9.06 621
9.12 610
9.18 565
9.24 692
9.3 845
9.36 672
9.42 581
9.48 528
9.54 468
9.6 507
9.66 493
9.72 503
9.78 463
9.84 482
9.9 460
9.96 486
10.02 489
10.08 539
10.14 550
10.2 541
10.26 516
10.32 483
10.38 481
10.44 493
10.5 478
10.56 445
10.62 535
10.68 553
10.74 592
10.8 527
10.86 574
10.92 624
10.98 556
11.04 454
11.1 497
11.16 481
11.22 450
11.28 475
11.34 504
11.4 499
11.46 482
11.52 492
11.58 493
11.64 479
11.7 444
11.76 463
11.82 441
11.88 496
11.94 449
12 459
12.06 474
12.12 491
12.18 476
12.24 497
12.3 470
12.36 449
12.42 449
12.48 470
12.54 463
12.6 419
12.66 429
12.72 433
12.78 456
12.84 409
12.9 466
12.96 449
13.02 419
13.08 429
13.14 481
13.2 493
13.26 496
13.32 481
13.38 468
13.44 473
13.5 479
13.56 481
13.62 503
13.68 434
13.74 462
13.8 486
13.86 457
13.92 467
13.98 496
14.04 472
14.1 483
14.16 470
14.22 474
14.28 474
14.34 506
14.4 487
14.46 449
14.52 455
14.58 483
14.64 484
14.7 436
14.76 521
14.82 481
14.88 549
14.94 493
15 457
15.06 524
15.12 509
15.18 493
15.24 505
15.3 536
15.36 526
15.42 525
15.48 504
15.54 527
15.6 563
15.66 536
15.72 557
15.78 543
15.84 568
15.9 557
15.96 574
16.02 517
16.08 558
16.14 560
16.2 569
16.26 580
16.32 574
16.38 564
16.44 575
16.5 601
16.56 550
16.62 589
16.68 641
16.74 657
16.8 727
16.86 791
16.92 1068
16.98 1344
17.04 846
17.1 723
17.16 630
17.22 695
17.28 604
17.34 612
17.4 623
17.46 626
17.52 649
17.58 654
17.64 641
17.7 682
17.76 598
17.82 661
17.88 640
17.94 649
18 667
18.06 671
18.12 697
18.18 694
18.24 677
18.3 685
18.36 738
18.42 710
18.48 713
18.54 651
18.6 762
18.66 753
18.72 744
18.78 763
18.84 749
18.9 766
18.96 787
19.02 809
19.08 853
19.14 813
19.2 815
19.26 811
19.32 859
19.38 849
19.44 876
19.5 931
19.56 900
19.62 817
19.68 840
19.74 826
19.8 885
19.86 845
19.92 877
19.98 851
20 826