File: xrd-UiO-67/pxrddata/36-11.ASC
3 2895
3.06 2538
3.12 2342
3.18 2157
3.24 2259
3.3 2086
3.36 2078
3.42 2050
3.48 1939
3.54 1881
3.6 1909
3.66 1837
3.72 1742
3.78 1683
3.84 1656
3.9 1606
3.96 1566
4.02 1499
4.08 1504
4.14 1444
4.2 1388
4.26 1361
4.32 1280
4.38 1308
4.44 1159
4.5 1206
4.56 1097
4.62 1151
4.68 1077
4.74 1030
4.8 1022
4.86 1025
4.92 976
4.98 989
5.04 932
5.1 864
5.16 886
5.22 928
5.28 835
5.34 916
5.4 913
5.46 901
5.52 837
5.58 807
5.64 801
5.7 776
5.76 734
5.82 763
5.88 749
5.94 778
6 752
6.06 705
6.12 673
6.18 698
6.24 673
6.3 685
6.36 659
6.42 662
6.48 647
6.54 659
6.6 657
6.66 628
6.72 617
6.78 626
6.84 631
6.9 627
6.96 628
7.02 574
7.08 630
7.14 656
7.2 625
7.26 593
7.32 614
7.38 583
7.44 596
7.5 570
7.56 602
7.62 600
7.68 586
7.74 595
7.8 564
7.86 591
7.92 542
7.98 583
8.04 591
8.1 540
8.16 547
8.22 544
8.28 557
8.34 540
8.4 522
8.46 553
8.52 555
8.58 532
8.64 574
8.7 553
8.76 559
8.82 548
8.88 569
8.94 552
9 556
9.06 550
9.12 512
9.18 518
9.24 532
9.3 541
9.36 578
9.42 520
9.48 526
9.54 502
9.6 511
9.66 497
9.72 468
9.78 497
9.84 488
9.9 492
9.96 503
10.02 467
10.08 470
10.14 527
10.2 463
10.26 459
10.32 463
10.38 450
10.44 498
10.5 492
10.56 495
10.62 462
10.68 523
10.74 501
10.8 467
10.86 450
10.92 457
10.98 460
11.04 490
11.1 441
11.16 452
11.22 485
11.28 471
11.34 423
11.4 450
11.46 455
11.52 424
11.58 440
11.64 446
11.7 492
11.76 469
11.82 461
11.88 454
11.94 452
12 480
12.06 472
12.12 468
12.18 477
12.24 427
12.3 499
12.36 485
12.42 476
12.48 430
12.54 445
12.6 491
12.66 462
12.72 440
12.78 476
12.84 449
12.9 457
12.96 448
13.02 485
13.08 464
13.14 470
13.2 504
13.26 490
13.32 469
13.38 453
13.44 465
13.5 452
13.56 483
13.62 486
13.68 481
13.74 454
13.8 471
13.86 503
13.92 499
13.98 468
14.04 485
14.1 483
14.16 483
14.22 467
14.28 512
14.34 499
14.4 501
14.46 487
14.52 490
14.58 492
14.64 509
14.7 532
14.76 515
14.82 532
14.88 484
14.94 507
15 510
15.06 520
15.12 503
15.18 491
15.24 544
15.3 519
15.36 540
15.42 531
15.48 555
15.54 520
15.6 550
15.66 504
15.72 520
15.78 539
15.84 540
15.9 525
15.96 543
16.02 586
16.08 556
16.14 517
16.2 582
16.26 557
16.32 615
16.38 557
16.44 637
16.5 618
16.56 612
16.62 662
16.68 669
16.74 758
16.8 887
16.86 1065
16.92 1699
16.98 1700
17.04 1159
17.1 880
17.16 716
17.22 646
17.28 667
17.34 673
17.4 681
17.46 632
17.52 673
17.58 673
17.64 677
17.7 669
17.76 660
17.82 735
17.88 722
17.94 719
18 731
18.06 698
18.12 726
18.18 722
18.24 717
18.3 714
18.36 747
18.42 776
18.48 779
18.54 727
18.6 721
18.66 785
18.72 763
18.78 763
18.84 756
18.9 708
18.96 763
19.02 827
19.08 772
19.14 791
19.2 781
19.26 748
19.32 829
19.38 801
19.44 850
19.5 817
19.56 872
19.62 874
19.68 789
19.74 841
19.8 834
19.86 872
19.92 870
19.98 846
20 927