File: xrd-UiO-67/pxrddata/36-18.ASC
3 1835
3.06 1674
3.12 1569
3.18 1529
3.24 1549
3.3 1500
3.36 1327
3.42 1468
3.48 1393
3.54 1342
3.6 1335
3.66 1268
3.72 1270
3.78 1193
3.84 1249
3.9 1153
3.96 1169
4.02 1206
4.08 1095
4.14 1084
4.2 1062
4.26 1089
4.32 989
4.38 1033
4.44 969
4.5 911
4.56 959
4.62 938
4.68 911
4.74 900
4.8 915
4.86 873
4.92 870
4.98 822
5.04 795
5.1 804
5.16 806
5.22 816
5.28 815
5.34 760
5.4 735
5.46 731
5.52 731
5.58 737
5.64 688
5.7 686
5.76 713
5.82 734
5.88 697
5.94 683
6 631
6.06 662
6.12 671
6.18 642
6.24 649
6.3 629
6.36 649
6.42 627
6.48 637
6.54 661
6.6 585
6.66 677
6.72 626
6.78 606
6.84 627
6.9 630
6.96 649
7.02 611
7.08 603
7.14 567
7.2 575
7.26 630
7.32 626
7.38 576
7.44 639
7.5 578
7.56 657
7.62 585
7.68 605
7.74 597
7.8 640
7.86 583
7.92 593
7.98 574
8.04 581
8.1 563
8.16 518
8.22 630
8.28 556
8.34 560
8.4 547
8.46 547
8.52 540
8.58 571
8.64 564
8.7 535
8.76 565
8.82 523
8.88 543
8.94 525
9 538
9.06 591
9.12 532
9.18 528
9.24 545
9.3 559
9.36 501
9.42 495
9.48 565
9.54 502
9.6 549
9.66 569
9.72 508
9.78 564
9.84 517
9.9 501
9.96 529
10.02 528
10.08 544
10.14 557
10.2 524
10.26 488
10.32 499
10.38 539
10.44 508
10.5 524
10.56 521
10.62 520
10.68 545
10.74 553
10.8 542
10.86 510
10.92 535
10.98 495
11.04 498
11.1 500
11.16 499
11.22 482
11.28 576
11.34 531
11.4 544
11.46 552
11.52 538
11.58 547
11.64 557
11.7 533
11.76 515
11.82 490
11.88 509
11.94 571
12 548
12.06 539
12.12 532
12.18 511
12.24 501
12.3 539
12.36 562
12.42 543
12.48 540
12.54 541
12.6 522
12.66 567
12.72 551
12.78 523
12.84 505
12.9 553
12.96 521
13.02 560
13.08 527
13.14 559
13.2 568
13.26 585
13.32 636
13.38 609
13.44 639
13.5 563
13.56 566
13.62 577
13.68 607
13.74 579
13.8 582
13.86 609
13.92 614
13.98 605
14.04 580
14.1 613
14.16 618
14.22 580
14.28 615
14.34 595
14.4 609
14.46 627
14.52 601
14.58 626
14.64 617
14.7 651
14.76 654
14.82 645
14.88 660
14.94 628
15 662
15.06 674
15.12 663
15.18 675
15.24 679
15.3 686
15.36 657
15.42 702
15.48 699
15.54 699
15.6 715
15.66 721
15.72 722
15.78 705
15.84 738
15.9 726
15.96 716
16.02 739
16.08 713
16.14 736
16.2 795
16.26 771
16.32 778
16.38 795
16.44 795
16.5 815
16.56 785
16.62 901
16.68 930
16.74 988
16.8 1197
16.86 1544
16.92 2196
16.98 3195
17.04 2747
17.1 1784
17.16 1273
17.22 1083
17.28 934
17.34 905
17.4 909
17.46 946
17.52 948
17.58 936
17.64 924
17.7 898
17.76 977
17.82 974
17.88 958
17.94 972
18 985
18.06 949
18.12 989
18.18 972
18.24 980
18.3 990
18.36 1074
18.42 1042
18.48 1025
18.54 1041
18.6 1036
18.66 1025
18.72 1054
18.78 1046
18.84 1106
18.9 1124
18.96 1122
19.02 1168
19.08 1162
19.14 1197
19.2 1154
19.26 1095
19.32 1161
19.38 1130
19.44 1161
19.5 1159
19.56 1193
19.62 1167
19.68 1210
19.74 1256
19.8 1230
19.86 1242
19.92 1252
19.98 1273
20 1296