File: xrd-UiO-67/pxrddata/36-1.ASC
3 2828
3.06 2389
3.12 2169
3.18 2094
3.24 2040
3.3 1917
3.36 1793
3.42 1862
3.48 1731
3.54 1659
3.6 1563
3.66 1570
3.72 1500
3.78 1443
3.84 1436
3.9 1347
3.96 1376
4.02 1267
4.08 1299
4.14 1201
4.2 1141
4.26 1145
4.32 1149
4.38 1127
4.44 1060
4.5 1026
4.56 972
4.62 973
4.68 963
4.74 966
4.8 960
4.86 949
4.92 869
4.98 892
5.04 845
5.1 851
5.16 811
5.22 823
5.28 750
5.34 821
5.4 789
5.46 805
5.52 808
5.58 790
5.64 811
5.7 761
5.76 757
5.82 709
5.88 771
5.94 778
6 721
6.06 748
6.12 698
6.18 692
6.24 742
6.3 706
6.36 703
6.42 673
6.48 665
6.54 670
6.6 648
6.66 665
6.72 621
6.78 636
6.84 666
6.9 665
6.96 632
7.02 698
7.08 664
7.14 627
7.2 654
7.26 669
7.32 633
7.38 601
7.44 642
7.5 651
7.56 666
7.62 616
7.68 667
7.74 627
7.8 586
7.86 638
7.92 613
7.98 597
8.04 613
8.1 616
8.16 592
8.22 624
8.28 584
8.34 637
8.4 624
8.46 614
8.52 601
8.58 572
8.64 632
8.7 600
8.76 581
8.82 536
8.88 602
8.94 565
9 599
9.06 606
9.12 590
9.18 551
9.24 585
9.3 566
9.36 577
9.42 569
9.48 563
9.54 605
9.6 511
9.66 585
9.72 575
9.78 532
9.84 571
9.9 512
9.96 549
10.02 591
10.08 600
10.14 548
10.2 575
10.26 571
10.32 590
10.38 529
10.44 547
10.5 562
10.56 564
10.62 511
10.68 557
10.74 539
10.8 530
10.86 524
10.92 552
10.98 547
11.04 535
11.1 581
11.16 548
11.22 538
11.28 573
11.34 539
11.4 558
11.46 572
11.52 535
11.58 574
11.64 587
11.7 555
11.76 613
11.82 579
11.88 609
11.94 532
12 597
12.06 607
12.12 590
12.18 616
12.24 587
12.3 514
12.36 582
12.42 555
12.48 519
12.54 582
12.6 551
12.66 581
12.72 586
12.78 579
12.84 616
12.9 574
12.96 609
13.02 619
13.08 593
13.14 590
13.2 635
13.26 606
13.32 612
13.38 626
13.44 628
13.5 658
13.56 598
13.62 605
13.68 609
13.74 638
13.8 602
13.86 642
13.92 651
13.98 628
14.04 654
14.1 642
14.16 660
14.22 639
14.28 686
14.34 690
14.4 621
14.46 664
14.52 652
14.58 691
14.64 677
14.7 704
14.76 712
14.82 675
14.88 699
14.94 740
15 716
15.06 691
15.12 718
15.18 740
15.24 752
15.3 740
15.36 729
15.42 740
15.48 771
15.54 789
15.6 716
15.66 752
15.72 742
15.78 759
15.84 758
15.9 810
15.96 821
16.02 801
16.08 774
16.14 804
16.2 858
16.26 831
16.32 807
16.38 837
16.44 881
16.5 850
16.56 902
16.62 888
16.68 924
16.74 849
16.8 910
16.86 1030
16.92 1169
16.98 1411
17.04 1477
17.1 1121
17.16 1054
17.22 923
17.28 946
17.34 929
17.4 967
17.46 1021
17.52 990
17.58 1025
17.64 958
17.7 1036
17.76 1001
17.82 996
17.88 1064
17.94 1025
18 1048
18.06 1076
18.12 1049
18.18 1091
18.24 1105
18.3 1092
18.36 1054
18.42 1132
18.48 1086
18.54 1196
18.6 1147
18.66 1175
18.72 1142
18.78 1186
18.84 1221
18.9 1277
18.96 1190
19.02 1226
19.08 1249
19.14 1301
19.2 1224
19.26 1319
19.32 1270
19.38 1281
19.44 1311
19.5 1261
19.56 1326
19.62 1344
19.68 1348
19.74 1408
19.8 1341
19.86 1352
19.92 1422
19.98 1364
20 1394