File: xrd-UiO-67/pxrddata/36-26.ASC
3 395
3.06 358
3.12 324
3.18 354
3.24 343
3.3 329
3.36 343
3.42 344
3.48 317
3.54 319
3.6 360
3.66 348
3.72 319
3.78 344
3.84 346
3.9 364
3.96 363
4.02 378
4.08 369
4.14 397
4.2 386
4.26 396
4.32 380
4.38 382
4.44 422
4.5 424
4.56 423
4.62 429
4.68 413
4.74 432
4.8 441
4.86 464
4.92 423
4.98 492
5.04 453
5.1 437
5.16 492
5.22 445
5.28 455
5.34 432
5.4 519
5.46 491
5.52 501
5.58 529
5.64 556
5.7 531
5.76 505
5.82 427
5.88 409
5.94 336
6 323
6.06 306
6.12 291
6.18 292
6.24 289
6.3 261
6.36 275
6.42 245
6.48 266
6.54 237
6.6 261
6.66 259
6.72 216
6.78 248
6.84 263
6.9 214
6.96 241
7.02 237
7.08 256
7.14 222
7.2 215
7.26 228
7.32 217
7.38 202
7.44 221
7.5 229
7.56 195
7.62 229
7.68 227
7.74 199
7.8 212
7.86 218
7.92 226
7.98 192
8.04 216
8.1 191
8.16 236
8.22 183
8.28 201
8.34 194
8.4 212
8.46 226
8.52 213
8.58 204
8.64 204
8.7 189
8.76 187
8.82 211
8.88 212
8.94 191
9 206
9.06 186
9.12 186
9.18 192
9.24 198
9.3 209
9.36 220
9.42 231
9.48 206
9.54 216
9.6 228
9.66 232
9.72 206
9.78 192
9.84 195
9.9 213
9.96 176
10.02 181
10.08 210
10.14 199
10.2 168
10.26 160
10.32 171
10.38 168
10.44 168
10.5 169
10.56 201
10.62 168
10.68 183
10.74 181
10.8 175
10.86 185
10.92 163
10.98 206
11.04 180
11.1 168
11.16 187
11.22 177
11.28 170
11.34 164
11.4 174
11.46 169
11.52 168
11.58 160
11.64 159
11.7 176
11.76 145
11.82 175
11.88 180
11.94 148
12 164
12.06 163
12.12 182
12.18 152
12.24 168
12.3 161
12.36 168
12.42 149
12.48 176
12.54 165
12.6 169
12.66 164
12.72 176
12.78 158
12.84 176
12.9 177
12.96 149
13.02 162
13.08 170
13.14 166
13.2 175
13.26 168
13.32 150
13.38 149
13.44 162
13.5 172
13.56 177
13.62 161
13.68 162
13.74 166
13.8 138
13.86 153
13.92 174
13.98 178
14.04 168
14.1 160
14.16 158
14.22 163
14.28 168
14.34 171
14.4 161
14.46 173
14.52 163
14.58 160
14.64 172
14.7 171
14.76 158
14.82 173
14.88 149
14.94 163
15 152
15.06 151
15.12 161
15.18 157
15.24 165
15.3 170
15.36 152
15.42 180
15.48 175
15.54 153
15.6 160
15.66 152
15.72 184
15.78 181
15.84 147
15.9 184
15.96 164
16.02 183
16.08 187
16.14 156
16.2 185
16.26 157
16.32 165
16.38 190
16.44 180
16.5 177
16.56 171
16.62 184
16.68 183
16.74 178
16.8 187
16.86 200
16.92 183
16.98 195
17.04 208
17.1 177
17.16 206
17.22 215
17.28 238
17.34 231
17.4 205
17.46 192
17.52 167
17.58 209
17.64 164
17.7 168
17.76 196
17.82 199
17.88 200
17.94 179
18 190
18.06 183
18.12 203
18.18 147
18.24 181
18.3 184
18.36 193
18.42 189
18.48 193
18.54 193
18.6 194
18.66 193
18.72 163
18.78 194
18.84 207
18.9 176
18.96 216
19.02 175
19.08 200
19.14 197
19.2 201
19.26 184
19.32 170
19.38 212
19.44 187
19.5 199
19.56 177
19.62 190
19.68 219
19.74 211
19.8 205
19.86 210
19.92 198
19.98 191
20 210