File: xrd-UiO-67/pxrddata/36-20.ASC
3 2553
3.06 2304
3.12 2129
3.18 2011
3.24 1977
3.3 1956
3.36 1819
3.42 1785
3.48 1700
3.54 1600
3.6 1657
3.66 1525
3.72 1550
3.78 1443
3.84 1449
3.9 1354
3.96 1324
4.02 1285
4.08 1221
4.14 1219
4.2 1240
4.26 1172
4.32 1120
4.38 1099
4.44 1051
4.5 1060
4.56 990
4.62 1000
4.68 949
4.74 953
4.8 888
4.86 902
4.92 885
4.98 872
5.04 869
5.1 834
5.16 819
5.22 744
5.28 833
5.34 786
5.4 781
5.46 728
5.52 746
5.58 742
5.64 732
5.7 696
5.76 728
5.82 687
5.88 687
5.94 780
6 709
6.06 651
6.12 686
6.18 651
6.24 624
6.3 614
6.36 661
6.42 602
6.48 639
6.54 643
6.6 598
6.66 619
6.72 596
6.78 626
6.84 623
6.9 566
6.96 598
7.02 591
7.08 580
7.14 579
7.2 594
7.26 596
7.32 584
7.38 571
7.44 577
7.5 560
7.56 544
7.62 542
7.68 514
7.74 564
7.8 554
7.86 547
7.92 537
7.98 535
8.04 579
8.1 512
8.16 494
8.22 505
8.28 532
8.34 499
8.4 526
8.46 518
8.52 488
8.58 531
8.64 501
8.7 538
8.76 518
8.82 505
8.88 479
8.94 516
9 470
9.06 486
9.12 514
9.18 497
9.24 502
9.3 511
9.36 458
9.42 479
9.48 497
9.54 484
9.6 463
9.66 496
9.72 436
9.78 476
9.84 491
9.9 469
9.96 497
10.02 461
10.08 470
10.14 459
10.2 490
10.26 511
10.32 477
10.38 457
10.44 497
10.5 464
10.56 473
10.62 474
10.68 462
10.74 522
10.8 457
10.86 454
10.92 458
10.98 476
11.04 420
11.1 469
11.16 445
11.22 420
11.28 470
11.34 455
11.4 485
11.46 430
11.52 500
11.58 470
11.64 484
11.7 468
11.76 448
11.82 481
11.88 458
11.94 431
12 494
12.06 469
12.12 467
12.18 484
12.24 523
12.3 481
12.36 467
12.42 437
12.48 432
12.54 521
12.6 471
12.66 436
12.72 493
12.78 461
12.84 507
12.9 502
12.96 475
13.02 469
13.08 462
13.14 508
13.2 543
13.26 510
13.32 532
13.38 491
13.44 498
13.5 496
13.56 481
13.62 505
13.68 541
13.74 502
13.8 561
13.86 521
13.92 509
13.98 524
14.04 516
14.1 522
14.16 519
14.22 525
14.28 570
14.34 557
14.4 537
14.46 530
14.52 538
14.58 570
14.64 563
14.7 557
14.76 569
14.82 566
14.88 560
14.94 552
15 570
15.06 581
15.12 574
15.18 602
15.24 605
15.3 587
15.36 595
15.42 572
15.48 552
15.54 585
15.6 597
15.66 634
15.72 636
15.78 644
15.84 618
15.9 589
15.96 649
16.02 636
16.08 647
16.14 669
16.2 614
16.26 668
16.32 670
16.38 669
16.44 687
16.5 731
16.56 708
16.62 703
16.68 765
16.74 830
16.8 1016
16.86 1305
16.92 1865
16.98 2514
17.04 2091
17.1 1200
17.16 864
17.22 834
17.28 747
17.34 727
17.4 725
17.46 756
17.52 735
17.58 771
17.64 785
17.7 794
17.76 778
17.82 794
17.88 791
17.94 803
18 856
18.06 832
18.12 847
18.18 864
18.24 806
18.3 860
18.36 858
18.42 828
18.48 879
18.54 898
18.6 853
18.66 891
18.72 892
18.78 920
18.84 936
18.9 891
18.96 976
19.02 939
19.08 967
19.14 974
19.2 966
19.26 953
19.32 946
19.38 974
19.44 980
19.5 944
19.56 1005
19.62 1044
19.68 1053
19.74 1032
19.8 1054
19.86 1046
19.92 1033
19.98 1057
20 1033