File: xrd-UiO-67/pxrddata/36-29.ASC
3 2110
3.06 2002
3.12 1875
3.18 1829
3.24 1774
3.3 1676
3.36 1703
3.42 1605
3.48 1569
3.54 1484
3.6 1425
3.66 1384
3.72 1411
3.78 1322
3.84 1373
3.9 1279
3.96 1244
4.02 1303
4.08 1236
4.14 1200
4.2 1165
4.26 1199
4.32 1186
4.38 1189
4.44 1069
4.5 1152
4.56 1159
4.62 1137
4.68 1102
4.74 1121
4.8 1104
4.86 1107
4.92 1199
4.98 1116
5.04 1108
5.1 1270
5.16 1234
5.22 1302
5.28 1489
5.34 1761
5.4 2222
5.46 2301
5.52 1467
5.58 1190
5.64 1054
5.7 1000
5.76 978
5.82 988
5.88 906
5.94 827
6 872
6.06 791
6.12 821
6.18 781
6.24 665
6.3 749
6.36 713
6.42 718
6.48 746
6.54 734
6.6 664
6.66 692
6.72 720
6.78 644
6.84 670
6.9 677
6.96 617
7.02 618
7.08 622
7.14 610
7.2 669
7.26 592
7.32 632
7.38 587
7.44 606
7.5 630
7.56 614
7.62 590
7.68 522
7.74 601
7.8 618
7.86 554
7.92 586
7.98 609
8.04 531
8.1 570
8.16 555
8.22 560
8.28 582
8.34 576
8.4 567
8.46 558
8.52 597
8.58 592
8.64 585
8.7 593
8.76 567
8.82 595
8.88 597
8.94 613
9 558
9.06 577
9.12 673
9.18 648
9.24 722
9.3 822
9.36 989
9.42 751
9.48 621
9.54 575
9.6 564
9.66 568
9.72 528
9.78 562
9.84 553
9.9 581
9.96 526
10.02 575
10.08 534
10.14 541
10.2 542
10.26 556
10.32 549
10.38 551
10.44 500
10.5 528
10.56 579
10.62 539
10.68 589
10.74 663
10.8 757
10.86 674
10.92 597
10.98 597
11.04 557
11.1 556
11.16 590
11.22 556
11.28 493
11.34 559
11.4 500
11.46 531
11.52 551
11.58 543
11.64 537
11.7 547
11.76 542
11.82 543
11.88 550
11.94 519
12 505
12.06 495
12.12 498
12.18 555
12.24 563
12.3 541
12.36 544
12.42 542
12.48 534
12.54 538
12.6 526
12.66 579
12.72 523
12.78 565
12.84 563
12.9 551
12.96 546
13.02 595
13.08 539
13.14 522
13.2 541
13.26 587
13.32 584
13.38 588
13.44 578
13.5 602
13.56 515
13.62 568
13.68 559
13.74 603
13.8 553
13.86 560
13.92 589
13.98 604
14.04 574
14.1 625
14.16 602
14.22 610
14.28 614
14.34 601
14.4 605
14.46 599
14.52 628
14.58 561
14.64 617
14.7 614
14.76 585
14.82 616
14.88 647
14.94 614
15 613
15.06 649
15.12 582
15.18 630
15.24 636
15.3 635
15.36 646
15.42 646
15.48 654
15.54 672
15.6 651
15.66 663
15.72 664
15.78 696
15.84 659
15.9 662
15.96 692
16.02 703
16.08 700
16.14 663
16.2 674
16.26 712
16.32 700
16.38 720
16.44 733
16.5 736
16.56 711
16.62 730
16.68 767
16.74 753
16.8 810
16.86 897
16.92 1089
16.98 1510
17.04 1893
17.1 1171
17.16 908
17.22 800
17.28 775
17.34 798
17.4 812
17.46 810
17.52 871
17.58 837
17.64 833
17.7 865
17.76 829
17.82 843
17.88 874
17.94 857
18 855
18.06 845
18.12 871
18.18 902
18.24 891
18.3 900
18.36 881
18.42 925
18.48 921
18.54 954
18.6 917
18.66 954
18.72 1031
18.78 941
18.84 996
18.9 1049
18.96 968
19.02 974
19.08 1057
19.14 1027
19.2 1002
19.26 1008
19.32 1064
19.38 1093
19.44 1116
19.5 1110
19.56 1079
19.62 1103
19.68 1053
19.74 1027
19.8 1108
19.86 1106
19.92 1127
19.98 1154
20 1126