File: xrd-UiO-67/pxrddata/36-25.ASC
3 1448
3.06 1347
3.12 1347
3.18 1270
3.24 1309
3.3 1212
3.36 1208
3.42 1143
3.48 1130
3.54 1101
3.6 1118
3.66 1136
3.72 1151
3.78 1087
3.84 1001
3.9 1106
3.96 1060
4.02 1022
4.08 981
4.14 961
4.2 1017
4.26 1005
4.32 909
4.38 1019
4.44 1006
4.5 1028
4.56 1023
4.62 1008
4.68 982
4.74 915
4.8 937
4.86 945
4.92 965
4.98 1018
5.04 960
5.1 977
5.16 977
5.22 956
5.28 1037
5.34 1035
5.4 1127
5.46 1295
5.52 1424
5.58 1204
5.64 884
5.7 890
5.76 851
5.82 755
5.88 761
5.94 718
6 708
6.06 695
6.12 694
6.18 619
6.24 634
6.3 613
6.36 583
6.42 616
6.48 563
6.54 570
6.6 582
6.66 591
6.72 588
6.78 576
6.84 545
6.9 529
6.96 516
7.02 529
7.08 503
7.14 533
7.2 545
7.26 523
7.32 509
7.38 464
7.44 517
7.5 507
7.56 509
7.62 513
7.68 494
7.74 505
7.8 452
7.86 487
7.92 522
7.98 494
8.04 475
8.1 490
8.16 483
8.22 464
8.28 491
8.34 464
8.4 468
8.46 436
8.52 480
8.58 456
8.64 420
8.7 446
8.76 472
8.82 456
8.88 463
8.94 481
9 441
9.06 479
9.12 468
9.18 503
9.24 444
9.3 513
9.36 561
9.42 627
9.48 568
9.54 520
9.6 470
9.66 452
9.72 413
9.78 446
9.84 440
9.9 406
9.96 429
10.02 419
10.08 419
10.14 436
10.2 478
10.26 452
10.32 436
10.38 470
10.44 437
10.5 457
10.56 464
10.62 462
10.68 456
10.74 502
10.8 500
10.86 523
10.92 467
10.98 437
11.04 432
11.1 436
11.16 437
11.22 453
11.28 404
11.34 437
11.4 449
11.46 405
11.52 410
11.58 400
11.64 440
11.7 443
11.76 450
11.82 438
11.88 408
11.94 417
12 444
12.06 450
12.12 442
12.18 438
12.24 440
12.3 453
12.36 444
12.42 456
12.48 444
12.54 423
12.6 427
12.66 443
12.72 462
12.78 444
12.84 483
12.9 420
12.96 412
13.02 451
13.08 460
13.14 427
13.2 463
13.26 466
13.32 494
13.38 456
13.44 463
13.5 467
13.56 473
13.62 502
13.68 462
13.74 485
13.8 471
13.86 489
13.92 445
13.98 430
14.04 479
14.1 500
14.16 487
14.22 490
14.28 499
14.34 496
14.4 498
14.46 476
14.52 470
14.58 533
14.64 507
14.7 496
14.76 501
14.82 482
14.88 508
14.94 460
15 483
15.06 485
15.12 517
15.18 494
15.24 499
15.3 508
15.36 554
15.42 522
15.48 539
15.54 503
15.6 506
15.66 512
15.72 569
15.78 529
15.84 534
15.9 503
15.96 531
16.02 513
16.08 529
16.14 558
16.2 589
16.26 565
16.32 559
16.38 580
16.44 587
16.5 605
16.56 625
16.62 606
16.68 589
16.74 585
16.8 604
16.86 691
16.92 758
16.98 1062
17.04 1987
17.1 2355
17.16 1181
17.22 795
17.28 657
17.34 652
17.4 617
17.46 687
17.52 666
17.58 682
17.64 658
17.7 709
17.76 672
17.82 639
17.88 730
17.94 651
18 777
18.06 684
18.12 722
18.18 667
18.24 714
18.3 693
18.36 733
18.42 740
18.48 751
18.54 719
18.6 734
18.66 738
18.72 780
18.78 781
18.84 774
18.9 812
18.96 798
19.02 784
19.08 816
19.14 759
19.2 784
19.26 823
19.32 846
19.38 805
19.44 876
19.5 857
19.56 886
19.62 886
19.68 788
19.74 849
19.8 878
19.86 846
19.92 879
19.98 887
20 902