File: xrd-UiO-67/pxrddata/36-27.ASC
3 1817
3.06 1698
3.12 1680
3.18 1666
3.24 1519
3.3 1596
3.36 1493
3.42 1466
3.48 1490
3.54 1436
3.6 1389
3.66 1363
3.72 1397
3.78 1374
3.84 1405
3.9 1425
3.96 1427
4.02 1412
4.08 1361
4.14 1348
4.2 1303
4.26 1318
4.32 1318
4.38 1304
4.44 1379
4.5 1300
4.56 1351
4.62 1326
4.68 1344
4.74 1244
4.8 1298
4.86 1365
4.92 1321
4.98 1354
5.04 1342
5.1 1382
5.16 1387
5.22 1399
5.28 1503
5.34 1605
5.4 1873
5.46 1875
5.52 1404
5.58 1254
5.64 1217
5.7 1235
5.76 1219
5.82 1112
5.88 964
5.94 926
6 900
6.06 798
6.12 831
6.18 841
6.24 789
6.3 805
6.36 778
6.42 750
6.48 756
6.54 737
6.6 743
6.66 717
6.72 738
6.78 704
6.84 636
6.9 644
6.96 671
7.02 693
7.08 658
7.14 638
7.2 624
7.26 603
7.32 639
7.38 620
7.44 597
7.5 604
7.56 610
7.62 603
7.68 595
7.74 600
7.8 586
7.86 554
7.92 605
7.98 557
8.04 575
8.1 573
8.16 562
8.22 598
8.28 581
8.34 524
8.4 589
8.46 595
8.52 557
8.58 536
8.64 552
8.7 554
8.76 554
8.82 536
8.88 499
8.94 579
9 534
9.06 552
9.12 564
9.18 618
9.24 607
9.3 651
9.36 783
9.42 586
9.48 602
9.54 493
9.6 561
9.66 546
9.72 533
9.78 515
9.84 500
9.9 545
9.96 548
10.02 520
10.08 563
10.14 550
10.2 523
10.26 488
10.32 493
10.38 534
10.44 472
10.5 527
10.56 524
10.62 520
10.68 530
10.74 586
10.8 606
10.86 551
10.92 551
10.98 511
11.04 526
11.1 516
11.16 503
11.22 477
11.28 480
11.34 475
11.4 457
11.46 517
11.52 491
11.58 496
11.64 489
11.7 466
11.76 497
11.82 514
11.88 516
11.94 484
12 467
12.06 464
12.12 483
12.18 525
12.24 485
12.3 487
12.36 507
12.42 477
12.48 507
12.54 522
12.6 523
12.66 502
12.72 503
12.78 496
12.84 503
12.9 468
12.96 490
13.02 513
13.08 521
13.14 541
13.2 552
13.26 551
13.32 488
13.38 503
13.44 518
13.5 505
13.56 496
13.62 520
13.68 484
13.74 526
13.8 478
13.86 547
13.92 495
13.98 530
14.04 554
14.1 468
14.16 478
14.22 526
14.28 565
14.34 509
14.4 560
14.46 520
14.52 548
14.58 561
14.64 515
14.7 528
14.76 528
14.82 550
14.88 554
14.94 528
15 530
15.06 581
15.12 554
15.18 558
15.24 541
15.3 576
15.36 554
15.42 546
15.48 532
15.54 582
15.6 586
15.66 551
15.72 549
15.78 575
15.84 555
15.9 583
15.96 592
16.02 616
16.08 571
16.14 587
16.2 592
16.26 595
16.32 615
16.38 596
16.44 632
16.5 601
16.56 642
16.62 610
16.68 622
16.74 674
16.8 670
16.86 768
16.92 828
16.98 1146
17.04 1524
17.1 1020
17.16 668
17.22 682
17.28 694
17.34 683
17.4 664
17.46 713
17.52 723
17.58 721
17.64 702
17.7 710
17.76 733
17.82 687
17.88 713
17.94 712
18 714
18.06 775
18.12 763
18.18 743
18.24 756
18.3 731
18.36 764
18.42 787
18.48 813
18.54 784
18.6 731
18.66 786
18.72 812
18.78 818
18.84 781
18.9 808
18.96 840
19.02 882
19.08 823
19.14 811
19.2 841
19.26 844
19.32 833
19.38 910
19.44 955
19.5 894
19.56 894
19.62 865
19.68 928
19.74 890
19.8 873
19.86 877
19.92 918
19.98 899
20 917