File: xrd-UiO-67/pxrddata/36-31.ASC
3 1897
3.06 1725
3.12 1725
3.18 1638
3.24 1695
3.3 1490
3.36 1506
3.42 1456
3.48 1448
3.54 1468
3.6 1417
3.66 1304
3.72 1305
3.78 1317
3.84 1240
3.9 1295
3.96 1178
4.02 1225
4.08 1202
4.14 1160
4.2 1136
4.26 1092
4.32 1122
4.38 1098
4.44 1021
4.5 1057
4.56 1086
4.62 1045
4.68 1054
4.74 1075
4.8 1048
4.86 977
4.92 1014
4.98 967
5.04 973
5.1 963
5.16 1002
5.22 993
5.28 1032
5.34 1091
5.4 1142
5.46 1115
5.52 1084
5.58 1012
5.64 962
5.7 897
5.76 1049
5.82 984
5.88 839
5.94 793
6 695
6.06 749
6.12 698
6.18 703
6.24 635
6.3 612
6.36 643
6.42 589
6.48 622
6.54 611
6.6 581
6.66 554
6.72 563
6.78 605
6.84 594
6.9 522
6.96 558
7.02 602
7.08 569
7.14 523
7.2 529
7.26 499
7.32 486
7.38 517
7.44 503
7.5 507
7.56 484
7.62 465
7.68 493
7.74 511
7.8 480
7.86 456
7.92 491
7.98 467
8.04 488
8.1 468
8.16 459
8.22 494
8.28 512
8.34 480
8.4 490
8.46 483
8.52 462
8.58 466
8.64 459
8.7 502
8.76 446
8.82 482
8.88 466
8.94 476
9 455
9.06 500
9.12 428
9.18 488
9.24 447
9.3 539
9.36 517
9.42 542
9.48 470
9.54 459
9.6 438
9.66 418
9.72 487
9.78 496
9.84 474
9.9 461
9.96 474
10.02 450
10.08 437
10.14 466
10.2 415
10.26 425
10.32 427
10.38 447
10.44 415
10.5 443
10.56 416
10.62 435
10.68 435
10.74 448
10.8 479
10.86 466
10.92 444
10.98 429
11.04 398
11.1 420
11.16 417
11.22 412
11.28 415
11.34 415
11.4 417
11.46 373
11.52 456
11.58 435
11.64 406
11.7 415
11.76 403
11.82 456
11.88 422
11.94 394
12 420
12.06 432
12.12 430
12.18 412
12.24 428
12.3 406
12.36 394
12.42 415
12.48 366
12.54 406
12.6 408
12.66 457
12.72 432
12.78 427
12.84 410
12.9 430
12.96 412
13.02 414
13.08 438
13.14 438
13.2 396
13.26 474
13.32 430
13.38 408
13.44 427
13.5 459
13.56 438
13.62 435
13.68 445
13.74 450
13.8 387
13.86 451
13.92 409
13.98 398
14.04 447
14.1 418
14.16 412
14.22 442
14.28 430
14.34 453
14.4 503
14.46 438
14.52 447
14.58 458
14.64 450
14.7 455
14.76 438
14.82 460
14.88 478
14.94 464
15 441
15.06 489
15.12 472
15.18 485
15.24 448
15.3 470
15.36 489
15.42 447
15.48 439
15.54 502
15.6 484
15.66 488
15.72 492
15.78 469
15.84 500
15.9 514
15.96 494
16.02 527
16.08 524
16.14 482
16.2 487
16.26 532
16.32 528
16.38 529
16.44 522
16.5 530
16.56 499
16.62 520
16.68 602
16.74 558
16.8 574
16.86 589
16.92 661
16.98 939
17.04 1071
17.1 881
17.16 726
17.22 639
17.28 591
17.34 583
17.4 588
17.46 538
17.52 596
17.58 596
17.64 555
17.7 551
17.76 664
17.82 574
17.88 618
17.94 626
18 655
18.06 587
18.12 618
18.18 634
18.24 612
18.3 598
18.36 680
18.42 636
18.48 680
18.54 655
18.6 670
18.66 645
18.72 668
18.78 667
18.84 707
18.9 669
18.96 690
19.02 720
19.08 642
19.14 718
19.2 697
19.26 708
19.32 718
19.38 775
19.44 720
19.5 719
19.56 794
19.62 696
19.68 759
19.74 733
19.8 806
19.86 763
19.92 704
19.98 735
20 728