File: xrd-UiO-67/pxrddata/36-35.ASC
3 1668
3.06 1603
3.12 1478
3.18 1493
3.24 1470
3.3 1384
3.36 1373
3.42 1320
3.48 1239
3.54 1203
3.6 1234
3.66 1210
3.72 1110
3.78 1144
3.84 1103
3.9 1065
3.96 1071
4.02 1057
4.08 1012
4.14 950
4.2 1014
4.26 949
4.32 915
4.38 950
4.44 927
4.5 875
4.56 885
4.62 864
4.68 861
4.74 847
4.8 900
4.86 880
4.92 873
4.98 817
5.04 868
5.1 900
5.16 905
5.22 859
5.28 1051
5.34 1090
5.4 1249
5.46 1511
5.52 1533
5.58 1043
5.64 889
5.7 822
5.76 768
5.82 786
5.88 737
5.94 696
6 677
6.06 658
6.12 604
6.18 663
6.24 648
6.3 614
6.36 623
6.42 602
6.48 603
6.54 600
6.6 601
6.66 545
6.72 579
6.78 602
6.84 622
6.9 584
6.96 569
7.02 569
7.08 583
7.14 520
7.2 569
7.26 547
7.32 574
7.38 579
7.44 500
7.5 543
7.56 539
7.62 522
7.68 541
7.74 587
7.8 554
7.86 508
7.92 538
7.98 536
8.04 486
8.1 528
8.16 533
8.22 474
8.28 526
8.34 512
8.4 510
8.46 498
8.52 544
8.58 515
8.64 519
8.7 542
8.76 488
8.82 495
8.88 520
8.94 506
9 512
9.06 470
9.12 530
9.18 538
9.24 587
9.3 645
9.36 713
9.42 789
9.48 614
9.54 522
9.6 515
9.66 479
9.72 502
9.78 491
9.84 467
9.9 509
9.96 524
10.02 529
10.08 505
10.14 474
10.2 506
10.26 468
10.32 483
10.38 501
10.44 511
10.5 487
10.56 536
10.62 479
10.68 523
10.74 576
10.8 634
10.86 641
10.92 587
10.98 574
11.04 499
11.1 469
11.16 505
11.22 473
11.28 495
11.34 475
11.4 518
11.46 503
11.52 501
11.58 489
11.64 494
11.7 500
11.76 509
11.82 521
11.88 497
11.94 492
12 507
12.06 508
12.12 503
12.18 488
12.24 500
12.3 514
12.36 528
12.42 506
12.48 526
12.54 518
12.6 531
12.66 544
12.72 471
12.78 562
12.84 535
12.9 533
12.96 567
13.02 574
13.08 538
13.14 553
13.2 530
13.26 566
13.32 546
13.38 569
13.44 587
13.5 559
13.56 601
13.62 575
13.68 540
13.74 578
13.8 611
13.86 591
13.92 559
13.98 556
14.04 554
14.1 593
14.16 609
14.22 611
14.28 627
14.34 598
14.4 608
14.46 628
14.52 577
14.58 623
14.64 608
14.7 612
14.76 583
14.82 655
14.88 605
14.94 627
15 630
15.06 651
15.12 657
15.18 706
15.24 681
15.3 641
15.36 631
15.42 672
15.48 663
15.54 703
15.6 637
15.66 685
15.72 665
15.78 705
15.84 686
15.9 681
15.96 756
16.02 698
16.08 741
16.14 773
16.2 732
16.26 732
16.32 747
16.38 785
16.44 765
16.5 801
16.56 759
16.62 774
16.68 797
16.74 872
16.8 825
16.86 963
16.92 1041
16.98 1225
17.04 1604
17.1 1579
17.16 1092
17.22 968
17.28 898
17.34 865
17.4 949
17.46 936
17.52 962
17.58 907
17.64 938
17.7 918
17.76 986
17.82 984
17.88 992
17.94 982
18 1067
18.06 1002
18.12 1006
18.18 977
18.24 998
18.3 1041
18.36 1087
18.42 1049
18.48 1004
18.54 1074
18.6 1096
18.66 1067
18.72 1133
18.78 1114
18.84 1077
18.9 1128
18.96 1118
19.02 1120
19.08 1155
19.14 1168
19.2 1220
19.26 1163
19.32 1171
19.38 1183
19.44 1246
19.5 1289
19.56 1260
19.62 1283
19.68 1260
19.74 1300
19.8 1230
19.86 1288
19.92 1280
19.98 1283
20 1284