File: xrd-UiO-67/pxrddata/36-32.ASC
3 2318
3.06 2144
3.12 2126
3.18 1974
3.24 1926
3.3 1846
3.36 1767
3.42 1789
3.48 1736
3.54 1701
3.6 1643
3.66 1596
3.72 1575
3.78 1589
3.84 1514
3.9 1591
3.96 1499
4.02 1448
4.08 1436
4.14 1420
4.2 1452
4.26 1453
4.32 1414
4.38 1347
4.44 1378
4.5 1354
4.56 1379
4.62 1179
4.68 1344
4.74 1323
4.8 1349
4.86 1297
4.92 1213
4.98 1228
5.04 1282
5.1 1209
5.16 1252
5.22 1267
5.28 1338
5.34 1324
5.4 1481
5.46 1293
5.52 1204
5.58 1159
5.64 1170
5.7 1125
5.76 1139
5.82 1151
5.88 981
5.94 945
6 880
6.06 844
6.12 811
6.18 841
6.24 837
6.3 810
6.36 779
6.42 794
6.48 732
6.54 749
6.6 755
6.66 679
6.72 691
6.78 711
6.84 674
6.9 705
6.96 639
7.02 679
7.08 672
7.14 632
7.2 599
7.26 661
7.32 614
7.38 600
7.44 627
7.5 637
7.56 604
7.62 568
7.68 622
7.74 609
7.8 552
7.86 534
7.92 613
7.98 596
8.04 567
8.1 580
8.16 558
8.22 569
8.28 535
8.34 547
8.4 575
8.46 527
8.52 542
8.58 557
8.64 567
8.7 519
8.76 507
8.82 537
8.88 551
8.94 586
9 522
9.06 552
9.12 542
9.18 557
9.24 626
9.3 635
9.36 625
9.42 595
9.48 555
9.54 536
9.6 515
9.66 567
9.72 501
9.78 547
9.84 536
9.9 507
9.96 550
10.02 519
10.08 476
10.14 504
10.2 480
10.26 510
10.32 503
10.38 494
10.44 511
10.5 494
10.56 501
10.62 530
10.68 558
10.74 503
10.8 538
10.86 509
10.92 479
10.98 459
11.04 469
11.1 470
11.16 509
11.22 461
11.28 513
11.34 501
11.4 481
11.46 482
11.52 469
11.58 499
11.64 438
11.7 425
11.76 469
11.82 477
11.88 493
11.94 438
12 481
12.06 500
12.12 436
12.18 468
12.24 471
12.3 482
12.36 482
12.42 494
12.48 484
12.54 489
12.6 484
12.66 521
12.72 538
12.78 496
12.84 473
12.9 473
12.96 542
13.02 477
13.08 492
13.14 510
13.2 527
13.26 511
13.32 484
13.38 472
13.44 511
13.5 530
13.56 478
13.62 494
13.68 501
13.74 512
13.8 508
13.86 467
13.92 541
13.98 507
14.04 494
14.1 510
14.16 555
14.22 530
14.28 520
14.34 536
14.4 524
14.46 575
14.52 523
14.58 550
14.64 533
14.7 546
14.76 560
14.82 580
14.88 551
14.94 532
15 520
15.06 525
15.12 549
15.18 597
15.24 535
15.3 580
15.36 552
15.42 562
15.48 587
15.54 542
15.6 579
15.66 595
15.72 605
15.78 556
15.84 587
15.9 600
15.96 621
16.02 565
16.08 624
16.14 595
16.2 602
16.26 636
16.32 602
16.38 637
16.44 630
16.5 637
16.56 651
16.62 673
16.68 655
16.74 712
16.8 728
16.86 800
16.92 971
16.98 1249
17.04 1196
17.1 884
17.16 759
17.22 734
17.28 695
17.34 746
17.4 708
17.46 732
17.52 778
17.58 746
17.64 701
17.7 732
17.76 731
17.82 774
17.88 767
17.94 783
18 747
18.06 751
18.12 743
18.18 827
18.24 792
18.3 740
18.36 836
18.42 774
18.48 748
18.54 785
18.6 814
18.66 820
18.72 776
18.78 834
18.84 885
18.9 869
18.96 856
19.02 793
19.08 851
19.14 875
19.2 889
19.26 880
19.32 884
19.38 898
19.44 977
19.5 995
19.56 922
19.62 912
19.68 886
19.74 939
19.8 912
19.86 989
19.92 936
19.98 884
20 950