File: xrd-UiO-67/pxrddata/36-30.ASC
3 944
3.06 858
3.12 758
3.18 813
3.24 767
3.3 756
3.36 744
3.42 727
3.48 695
3.54 686
3.6 702
3.66 670
3.72 725
3.78 698
3.84 693
3.9 667
3.96 714
4.02 701
4.08 675
4.14 691
4.2 679
4.26 702
4.32 650
4.38 664
4.44 717
4.5 719
4.56 661
4.62 655
4.68 691
4.74 677
4.8 697
4.86 654
4.92 688
4.98 685
5.04 644
5.1 698
5.16 720
5.22 695
5.28 726
5.34 776
5.4 760
5.46 803
5.52 876
5.58 898
5.64 956
5.7 1037
5.76 1030
5.82 854
5.88 720
5.94 683
6 641
6.06 588
6.12 551
6.18 541
6.24 522
6.3 555
6.36 514
6.42 481
6.48 488
6.54 476
6.6 475
6.66 466
6.72 461
6.78 464
6.84 453
6.9 444
6.96 472
7.02 450
7.08 401
7.14 465
7.2 452
7.26 398
7.32 452
7.38 452
7.44 410
7.5 401
7.56 439
7.62 421
7.68 424
7.74 373
7.8 406
7.86 371
7.92 394
7.98 392
8.04 388
8.1 383
8.16 362
8.22 370
8.28 370
8.34 394
8.4 386
8.46 350
8.52 344
8.58 397
8.64 397
8.7 333
8.76 351
8.82 375
8.88 348
8.94 355
9 368
9.06 375
9.12 377
9.18 389
9.24 344
9.3 362
9.36 369
9.42 377
9.48 411
9.54 453
9.6 455
9.66 461
9.72 467
9.78 412
9.84 373
9.9 373
9.96 360
10.02 344
10.08 366
10.14 330
10.2 349
10.26 304
10.32 334
10.38 348
10.44 362
10.5 320
10.56 351
10.62 333
10.68 333
10.74 345
10.8 349
10.86 340
10.92 326
10.98 333
11.04 342
11.1 333
11.16 314
11.22 336
11.28 340
11.34 334
11.4 345
11.46 337
11.52 290
11.58 315
11.64 313
11.7 282
11.76 318
11.82 288
11.88 310
11.94 317
12 287
12.06 291
12.12 278
12.18 326
12.24 317
12.3 323
12.36 311
12.42 319
12.48 337
12.54 291
12.6 292
12.66 280
12.72 303
12.78 310
12.84 299
12.9 346
12.96 338
13.02 321
13.08 335
13.14 298
13.2 303
13.26 305
13.32 301
13.38 322
13.44 321
13.5 331
13.56 287
13.62 328
13.68 306
13.74 287
13.8 341
13.86 321
13.92 283
13.98 298
14.04 334
14.1 346
14.16 303
14.22 331
14.28 318
14.34 314
14.4 320
14.46 334
14.52 338
14.58 300
14.64 352
14.7 319
14.76 309
14.82 299
14.88 311
14.94 356
15 323
15.06 333
15.12 321
15.18 338
15.24 342
15.3 330
15.36 352
15.42 360
15.48 348
15.54 341
15.6 361
15.66 358
15.72 344
15.78 320
15.84 324
15.9 343
15.96 334
16.02 348
16.08 335
16.14 362
16.2 360
16.26 367
16.32 374
16.38 367
16.44 383
16.5 388
16.56 359
16.62 368
16.68 380
16.74 382
16.8 389
16.86 421
16.92 409
16.98 469
17.04 452
17.1 479
17.16 504
17.22 524
17.28 586
17.34 595
17.4 471
17.46 444
17.52 426
17.58 403
17.64 385
17.7 472
17.76 446
17.82 425
17.88 427
17.94 457
18 430
18.06 453
18.12 404
18.18 427
18.24 438
18.3 445
18.36 482
18.42 440
18.48 467
18.54 439
18.6 452
18.66 439
18.72 478
18.78 460
18.84 457
18.9 494
18.96 464
19.02 449
19.08 464
19.14 474
19.2 513
19.26 492
19.32 467
19.38 479
19.44 492
19.5 513
19.56 516
19.62 557
19.68 540
19.74 521
19.8 511
19.86 565
19.92 518
19.98 556
20 539