File: xrd-UiO-67/pxrddata/36-37.ASC
3 2220
3.06 2064
3.12 1889
3.18 1825
3.24 1839
3.3 1787
3.36 1630
3.42 1574
3.48 1517
3.54 1530
3.6 1432
3.66 1351
3.72 1369
3.78 1274
3.84 1268
3.9 1191
3.96 1143
4.02 1213
4.08 1086
4.14 1087
4.2 1064
4.26 1071
4.32 934
4.38 913
4.44 863
4.5 895
4.56 869
4.62 901
4.68 848
4.74 867
4.8 825
4.86 869
4.92 792
4.98 801
5.04 886
5.1 842
5.16 961
5.22 960
5.28 1069
5.34 1256
5.4 1510
5.46 2112
5.52 1662
5.58 1202
5.64 963
5.7 934
5.76 824
5.82 754
5.88 701
5.94 656
6 655
6.06 610
6.12 623
6.18 594
6.24 545
6.3 565
6.36 569
6.42 544
6.48 569
6.54 597
6.6 561
6.66 543
6.72 576
6.78 537
6.84 515
6.9 499
6.96 478
7.02 520
7.08 522
7.14 510
7.2 508
7.26 514
7.32 475
7.38 507
7.44 468
7.5 489
7.56 469
7.62 500
7.68 505
7.74 480
7.8 467
7.86 466
7.92 489
7.98 438
8.04 495
8.1 454
8.16 459
8.22 476
8.28 457
8.34 465
8.4 441
8.46 441
8.52 434
8.58 473
8.64 460
8.7 473
8.76 472
8.82 455
8.88 439
8.94 445
9 434
9.06 507
9.12 522
9.18 495
9.24 567
9.3 631
9.36 860
9.42 914
9.48 580
9.54 512
9.6 478
9.66 496
9.72 516
9.78 489
9.84 458
9.9 475
9.96 481
10.02 489
10.08 445
10.14 455
10.2 429
10.26 487
10.32 456
10.38 472
10.44 444
10.5 472
10.56 493
10.62 449
10.68 511
10.74 579
10.8 637
10.86 733
10.92 591
10.98 573
11.04 509
11.1 434
11.16 490
11.22 472
11.28 438
11.34 449
11.4 474
11.46 452
11.52 458
11.58 490
11.64 472
11.7 479
11.76 459
11.82 495
11.88 491
11.94 470
12 497
12.06 445
12.12 476
12.18 477
12.24 471
12.3 476
12.36 525
12.42 497
12.48 512
12.54 462
12.6 532
12.66 486
12.72 478
12.78 507
12.84 481
12.9 486
12.96 506
13.02 510
13.08 510
13.14 468
13.2 495
13.26 559
13.32 522
13.38 537
13.44 515
13.5 511
13.56 515
13.62 505
13.68 534
13.74 518
13.8 546
13.86 505
13.92 583
13.98 507
14.04 536
14.1 577
14.16 506
14.22 567
14.28 555
14.34 607
14.4 562
14.46 565
14.52 592
14.58 576
14.64 581
14.7 588
14.76 553
14.82 612
14.88 575
14.94 550
15 598
15.06 570
15.12 594
15.18 618
15.24 596
15.3 586
15.36 635
15.42 610
15.48 584
15.54 642
15.6 614
15.66 630
15.72 674
15.78 614
15.84 655
15.9 618
15.96 657
16.02 686
16.08 651
16.14 729
16.2 688
16.26 766
16.32 680
16.38 689
16.44 731
16.5 742
16.56 708
16.62 719
16.68 756
16.74 800
16.8 784
16.86 741
16.92 866
16.98 876
17.04 1014
17.1 902
17.16 797
17.22 780
17.28 803
17.34 822
17.4 832
17.46 860
17.52 888
17.58 806
17.64 855
17.7 884
17.76 877
17.82 893
17.88 880
17.94 876
18 917
18.06 942
18.12 911
18.18 951
18.24 927
18.3 944
18.36 980
18.42 972
18.48 974
18.54 901
18.6 1053
18.66 968
18.72 999
18.78 1004
18.84 1008
18.9 1018
18.96 1076
19.02 1016
19.08 1063
19.14 1065
19.2 1075
19.26 1087
19.32 1150
19.38 1141
19.44 1122
19.5 1198
19.56 1202
19.62 1193
19.68 1169
19.74 1195
19.8 1189
19.86 1217
19.92 1136
19.98 1157
20 1255