File: xrd-UiO-67/pxrddata/36-33.ASC
3 1183
3.06 1074
3.12 1029
3.18 1073
3.24 1010
3.3 961
3.36 908
3.42 922
3.48 858
3.54 860
3.6 861
3.66 874
3.72 852
3.78 769
3.84 868
3.9 793
3.96 794
4.02 763
4.08 787
4.14 747
4.2 731
4.26 752
4.32 716
4.38 685
4.44 686
4.5 673
4.56 711
4.62 669
4.68 695
4.74 676
4.8 681
4.86 663
4.92 690
4.98 674
5.04 691
5.1 677
5.16 669
5.22 732
5.28 815
5.34 910
5.4 965
5.46 1177
5.52 1451
5.58 1572
5.64 973
5.7 745
5.76 749
5.82 658
5.88 640
5.94 585
6 534
6.06 531
6.12 563
6.18 530
6.24 514
6.3 505
6.36 512
6.42 482
6.48 492
6.54 495
6.6 495
6.66 499
6.72 474
6.78 496
6.84 456
6.9 444
6.96 403
7.02 428
7.08 451
7.14 413
7.2 417
7.26 466
7.32 427
7.38 402
7.44 436
7.5 446
7.56 426
7.62 405
7.68 409
7.74 448
7.8 420
7.86 415
7.92 425
7.98 404
8.04 410
8.1 421
8.16 417
8.22 435
8.28 421
8.34 412
8.4 452
8.46 413
8.52 375
8.58 408
8.64 395
8.7 400
8.76 394
8.82 406
8.88 388
8.94 402
9 394
9.06 426
9.12 426
9.18 472
9.24 447
9.3 444
9.36 514
9.42 601
9.48 641
9.54 563
9.6 443
9.66 390
9.72 423
9.78 401
9.84 363
9.9 399
9.96 372
10.02 398
10.08 381
10.14 389
10.2 377
10.26 394
10.32 369
10.38 383
10.44 388
10.5 411
10.56 408
10.62 373
10.68 417
10.74 417
10.8 410
10.86 494
10.92 525
10.98 520
11.04 404
11.1 429
11.16 432
11.22 394
11.28 403
11.34 362
11.4 342
11.46 362
11.52 342
11.58 402
11.64 390
11.7 354
11.76 384
11.82 361
11.88 367
11.94 417
12 394
12.06 362
12.12 389
12.18 389
12.24 400
12.3 394
12.36 387
12.42 398
12.48 374
12.54 383
12.6 373
12.66 364
12.72 392
12.78 360
12.84 415
12.9 381
12.96 395
13.02 402
13.08 401
13.14 368
13.2 402
13.26 404
13.32 403
13.38 400
13.44 392
13.5 422
13.56 434
13.62 434
13.68 410
13.74 399
13.8 391
13.86 407
13.92 425
13.98 387
14.04 448
14.1 435
14.16 453
14.22 420
14.28 436
14.34 455
14.4 463
14.46 422
14.52 417
14.58 441
14.64 445
14.7 462
14.76 432
14.82 453
14.88 439
14.94 457
15 441
15.06 470
15.12 454
15.18 447
15.24 448
15.3 461
15.36 455
15.42 478
15.48 490
15.54 482
15.6 446
15.66 478
15.72 463
15.78 473
15.84 486
15.9 468
15.96 521
16.02 494
16.08 519
16.14 516
16.2 522
16.26 525
16.32 534
16.38 512
16.44 496
16.5 486
16.56 556
16.62 509
16.68 532
16.74 542
16.8 608
16.86 627
16.92 569
16.98 579
17.04 678
17.1 749
17.16 872
17.22 719
17.28 612
17.34 639
17.4 656
17.46 578
17.52 620
17.58 642
17.64 670
17.7 637
17.76 647
17.82 651
17.88 656
17.94 659
18 686
18.06 679
18.12 657
18.18 680
18.24 700
18.3 668
18.36 688
18.42 709
18.48 694
18.54 744
18.6 667
18.66 747
18.72 733
18.78 752
18.84 766
18.9 776
18.96 793
19.02 778
19.08 744
19.14 756
19.2 779
19.26 748
19.32 800
19.38 835
19.44 806
19.5 856
19.56 881
19.62 892
19.68 847
19.74 835
19.8 813
19.86 884
19.92 892
19.98 884
20 846