File: xrd-UiO-67/pxrddata/36-38.ASC
3 2451
3.06 2268
3.12 2180
3.18 2070
3.24 1969
3.3 1784
3.36 1859
3.42 1754
3.48 1654
3.54 1640
3.6 1537
3.66 1501
3.72 1457
3.78 1441
3.84 1320
3.9 1294
3.96 1218
4.02 1235
4.08 1212
4.14 1146
4.2 1074
4.26 1063
4.32 1065
4.38 1060
4.44 1035
4.5 1010
4.56 1002
4.62 1005
4.68 984
4.74 986
4.8 982
4.86 942
4.92 1025
4.98 992
5.04 996
5.1 1035
5.16 1156
5.22 1197
5.28 1369
5.34 1583
5.4 2152
5.46 2266
5.52 1246
5.58 1006
5.64 911
5.7 852
5.76 827
5.82 795
5.88 783
5.94 748
6 718
6.06 701
6.12 682
6.18 683
6.24 677
6.3 699
6.36 649
6.42 625
6.48 628
6.54 671
6.6 645
6.66 692
6.72 610
6.78 622
6.84 635
6.9 587
6.96 609
7.02 626
7.08 575
7.14 611
7.2 585
7.26 629
7.32 607
7.38 570
7.44 575
7.5 590
7.56 594
7.62 586
7.68 584
7.74 563
7.8 542
7.86 581
7.92 591
7.98 557
8.04 547
8.1 557
8.16 553
8.22 552
8.28 535
8.34 549
8.4 499
8.46 510
8.52 540
8.58 546
8.64 565
8.7 521
8.76 535
8.82 472
8.88 578
8.94 547
9 572
9.06 578
9.12 600
9.18 634
9.24 651
9.3 829
9.36 1037
9.42 676
9.48 568
9.54 520
9.6 564
9.66 545
9.72 544
9.78 526
9.84 480
9.9 519
9.96 513
10.02 491
10.08 473
10.14 485
10.2 506
10.26 485
10.32 559
10.38 519
10.44 535
10.5 531
10.56 533
10.62 547
10.68 595
10.74 674
10.8 790
10.86 579
10.92 536
10.98 534
11.04 519
11.1 519
11.16 485
11.22 477
11.28 527
11.34 510
11.4 506
11.46 496
11.52 463
11.58 504
11.64 466
11.7 500
11.76 496
11.82 527
11.88 474
11.94 517
12 488
12.06 503
12.12 502
12.18 485
12.24 544
12.3 514
12.36 532
12.42 500
12.48 555
12.54 517
12.6 484
12.66 528
12.72 500
12.78 524
12.84 494
12.9 532
12.96 514
13.02 497
13.08 569
13.14 501
13.2 564
13.26 555
13.32 532
13.38 560
13.44 544
13.5 559
13.56 553
13.62 575
13.68 577
13.74 541
13.8 601
13.86 588
13.92 599
13.98 575
14.04 554
14.1 560
14.16 584
14.22 611
14.28 612
14.34 601
14.4 640
14.46 546
14.52 607
14.58 624
14.64 552
14.7 600
14.76 555
14.82 615
14.88 667
14.94 590
15 626
15.06 578
15.12 628
15.18 632
15.24 605
15.3 618
15.36 631
15.42 638
15.48 692
15.54 629
15.6 645
15.66 641
15.72 637
15.78 671
15.84 683
15.9 653
15.96 676
16.02 722
16.08 702
16.14 736
16.2 709
16.26 667
16.32 719
16.38 705
16.44 732
16.5 752
16.56 783
16.62 751
16.68 835
16.74 801
16.8 826
16.86 847
16.92 861
16.98 1093
17.04 1269
17.1 929
17.16 829
17.22 838
17.28 857
17.34 910
17.4 833
17.46 875
17.52 874
17.58 838
17.64 869
17.7 900
17.76 905
17.82 827
17.88 913
17.94 912
18 949
18.06 901
18.12 943
18.18 973
18.24 947
18.3 980
18.36 982
18.42 912
18.48 1005
18.54 1023
18.6 940
18.66 1006
18.72 1039
18.78 1062
18.84 1003
18.9 1016
18.96 980
19.02 1065
19.08 998
19.14 1081
19.2 1101
19.26 1160
19.32 1071
19.38 1147
19.44 1188
19.5 1219
19.56 1134
19.62 1142
19.68 1225
19.74 1131
19.8 1133
19.86 1135
19.92 1152
19.98 1147
20 1096