File: xrd-UiO-67/pxrddata/36-34.ASC
3 1416
3.06 1302
3.12 1288
3.18 1236
3.24 1205
3.3 1182
3.36 1103
3.42 1144
3.48 1146
3.54 1084
3.6 1066
3.66 1036
3.72 1063
3.78 1054
3.84 1046
3.9 1045
3.96 1061
4.02 991
4.08 1023
4.14 970
4.2 928
4.26 942
4.32 952
4.38 940
4.44 953
4.5 919
4.56 908
4.62 935
4.68 864
4.74 905
4.8 902
4.86 931
4.92 895
4.98 873
5.04 864
5.1 856
5.16 899
5.22 940
5.28 877
5.34 945
5.4 1000
5.46 1147
5.52 1118
5.58 876
5.64 752
5.7 755
5.76 718
5.82 673
5.88 693
5.94 651
6 642
6.06 633
6.12 633
6.18 590
6.24 579
6.3 579
6.36 596
6.42 568
6.48 582
6.54 558
6.6 569
6.66 573
6.72 498
6.78 552
6.84 556
6.9 530
6.96 536
7.02 548
7.08 522
7.14 583
7.2 545
7.26 569
7.32 527
7.38 517
7.44 520
7.5 508
7.56 530
7.62 549
7.68 542
7.74 489
7.8 590
7.86 478
7.92 490
7.98 513
8.04 527
8.1 525
8.16 509
8.22 513
8.28 488
8.34 468
8.4 511
8.46 524
8.52 518
8.58 493
8.64 537
8.7 474
8.76 495
8.82 539
8.88 498
8.94 493
9 473
9.06 537
9.12 486
9.18 526
9.24 505
9.3 526
9.36 580
9.42 605
9.48 524
9.54 519
9.6 460
9.66 478
9.72 518
9.78 480
9.84 513
9.9 479
9.96 523
10.02 460
10.08 471
10.14 501
10.2 502
10.26 500
10.32 503
10.38 503
10.44 498
10.5 508
10.56 486
10.62 453
10.68 431
10.74 499
10.8 539
10.86 520
10.92 493
10.98 504
11.04 442
11.1 484
11.16 453
11.22 502
11.28 503
11.34 489
11.4 455
11.46 483
11.52 510
11.58 500
11.64 482
11.7 479
11.76 479
11.82 500
11.88 511
11.94 519
12 478
12.06 466
12.12 511
12.18 462
12.24 518
12.3 512
12.36 477
12.42 488
12.48 510
12.54 478
12.6 525
12.66 501
12.72 511
12.78 521
12.84 496
12.9 507
12.96 474
13.02 526
13.08 514
13.14 498
13.2 509
13.26 539
13.32 568
13.38 540
13.44 549
13.5 536
13.56 583
13.62 529
13.68 531
13.74 556
13.8 548
13.86 544
13.92 546
13.98 547
14.04 546
14.1 520
14.16 588
14.22 578
14.28 577
14.34 557
14.4 569
14.46 596
14.52 628
14.58 567
14.64 588
14.7 629
14.76 576
14.82 589
14.88 605
14.94 593
15 633
15.06 597
15.12 588
15.18 619
15.24 677
15.3 643
15.36 625
15.42 606
15.48 659
15.54 659
15.6 661
15.66 627
15.72 653
15.78 692
15.84 656
15.9 692
15.96 693
16.02 693
16.08 711
16.14 693
16.2 727
16.26 728
16.32 721
16.38 681
16.44 720
16.5 744
16.56 723
16.62 793
16.68 731
16.74 776
16.8 854
16.86 878
16.92 941
16.98 1150
17.04 1448
17.1 1568
17.16 1111
17.22 844
17.28 835
17.34 854
17.4 894
17.46 869
17.52 860
17.58 895
17.64 890
17.7 876
17.76 882
17.82 864
17.88 924
17.94 919
18 984
18.06 949
18.12 905
18.18 941
18.24 957
18.3 964
18.36 959
18.42 981
18.48 965
18.54 983
18.6 1025
18.66 1019
18.72 1025
18.78 1002
18.84 1030
18.9 1007
18.96 1131
19.02 1059
19.08 1103
19.14 1094
19.2 1062
19.26 1149
19.32 1093
19.38 1154
19.44 1159
19.5 1145
19.56 1128
19.62 1212
19.68 1262
19.74 1185
19.8 1208
19.86 1238
19.92 1259
19.98 1271
20 1226