File: xrd-UiO-67/pxrddata/36-39.ASC
3 1587
3.06 1388
3.12 1392
3.18 1349
3.24 1355
3.3 1306
3.36 1269
3.42 1186
3.48 1175
3.54 1130
3.6 1161
3.66 1120
3.72 1092
3.78 1084
3.84 1016
3.9 949
3.96 962
4.02 995
4.08 928
4.14 937
4.2 925
4.26 904
4.32 869
4.38 846
4.44 831
4.5 864
4.56 791
4.62 840
4.68 785
4.74 799
4.8 826
4.86 720
4.92 737
4.98 779
5.04 830
5.1 753
5.16 751
5.22 740
5.28 749
5.34 803
5.4 814
5.46 879
5.52 889
5.58 884
5.64 780
5.7 783
5.76 691
5.82 714
5.88 688
5.94 715
6 655
6.06 683
6.12 684
6.18 659
6.24 632
6.3 637
6.36 602
6.42 595
6.48 634
6.54 596
6.6 591
6.66 587
6.72 597
6.78 571
6.84 607
6.9 578
6.96 565
7.02 570
7.08 603
7.14 599
7.2 571
7.26 591
7.32 582
7.38 552
7.44 537
7.5 551
7.56 567
7.62 537
7.68 561
7.74 548
7.8 593
7.86 518
7.92 576
7.98 541
8.04 585
8.1 537
8.16 534
8.22 537
8.28 528
8.34 555
8.4 544
8.46 535
8.52 553
8.58 564
8.64 558
8.7 538
8.76 562
8.82 480
8.88 513
8.94 500
9 533
9.06 549
9.12 532
9.18 573
9.24 557
9.3 575
9.36 575
9.42 599
9.48 659
9.54 543
9.6 493
9.66 562
9.72 516
9.78 495
9.84 583
9.9 484
9.96 518
10.02 480
10.08 521
10.14 538
10.2 538
10.26 510
10.32 491
10.38 502
10.44 503
10.5 542
10.56 506
10.62 522
10.68 530
10.74 498
10.8 510
10.86 538
10.92 539
10.98 540
11.04 542
11.1 489
11.16 475
11.22 544
11.28 516
11.34 487
11.4 540
11.46 507
11.52 542
11.58 497
11.64 508
11.7 522
11.76 516
11.82 556
11.88 519
11.94 515
12 550
12.06 481
12.12 502
12.18 546
12.24 534
12.3 549
12.36 515
12.42 540
12.48 516
12.54 513
12.6 578
12.66 568
12.72 518
12.78 556
12.84 510
12.9 533
12.96 565
13.02 579
13.08 536
13.14 567
13.2 526
13.26 547
13.32 587
13.38 551
13.44 569
13.5 558
13.56 604
13.62 559
13.68 576
13.74 607
13.8 630
13.86 589
13.92 552
13.98 585
14.04 572
14.1 597
14.16 631
14.22 633
14.28 630
14.34 618
14.4 648
14.46 615
14.52 645
14.58 633
14.64 693
14.7 649
14.76 634
14.82 643
14.88 646
14.94 689
15 683
15.06 703
15.12 695
15.18 678
15.24 677
15.3 702
15.36 683
15.42 700
15.48 656
15.54 704
15.6 728
15.66 734
15.72 731
15.78 751
15.84 761
15.9 735
15.96 756
16.02 764
16.08 782
16.14 768
16.2 779
16.26 786
16.32 820
16.38 783
16.44 823
16.5 780
16.56 887
16.62 869
16.68 822
16.74 865
16.8 855
16.86 921
16.92 950
16.98 1065
17.04 1197
17.1 1206
17.16 1027
17.22 969
17.28 883
17.34 940
17.4 925
17.46 952
17.52 954
17.58 936
17.64 984
17.7 948
17.76 1009
17.82 971
17.88 1066
17.94 969
18 1059
18.06 976
18.12 1037
18.18 1060
18.24 1120
18.3 1000
18.36 1147
18.42 1041
18.48 1081
18.54 1148
18.6 1176
18.66 1179
18.72 1159
18.78 1190
18.84 1163
18.9 1232
18.96 1201
19.02 1195
19.08 1221
19.14 1191
19.2 1322
19.26 1253
19.32 1357
19.38 1241
19.44 1295
19.5 1372
19.56 1266
19.62 1340
19.68 1358
19.74 1327
19.8 1267
19.86 1345
19.92 1407
19.98 1338
20 1355