File: xrd-UiO-67/pxrddata/36-4.ASC
3 2274
3.06 2022
3.12 1758
3.18 1675
3.24 1715
3.3 1630
3.36 1556
3.42 1461
3.48 1426
3.54 1420
3.6 1453
3.66 1344
3.72 1303
3.78 1244
3.84 1272
3.9 1148
3.96 1134
4.02 1061
4.08 1139
4.14 1052
4.2 1077
4.26 1041
4.32 1063
4.38 1002
4.44 969
4.5 973
4.56 987
4.62 927
4.68 885
4.74 885
4.8 917
4.86 867
4.92 774
4.98 816
5.04 820
5.1 825
5.16 794
5.22 761
5.28 765
5.34 725
5.4 733
5.46 757
5.52 773
5.58 745
5.64 716
5.7 733
5.76 735
5.82 702
5.88 676
5.94 702
6 675
6.06 675
6.12 663
6.18 690
6.24 659
6.3 699
6.36 628
6.42 661
6.48 670
6.54 652
6.6 607
6.66 612
6.72 678
6.78 633
6.84 647
6.9 613
6.96 636
7.02 642
7.08 605
7.14 650
7.2 606
7.26 618
7.32 612
7.38 632
7.44 612
7.5 648
7.56 580
7.62 607
7.68 601
7.74 607
7.8 621
7.86 604
7.92 554
7.98 604
8.04 590
8.1 615
8.16 594
8.22 585
8.28 585
8.34 605
8.4 574
8.46 580
8.52 584
8.58 592
8.64 565
8.7 581
8.76 616
8.82 588
8.88 560
8.94 570
9 598
9.06 558
9.12 592
9.18 569
9.24 572
9.3 599
9.36 586
9.42 590
9.48 591
9.54 571
9.6 589
9.66 578
9.72 574
9.78 543
9.84 603
9.9 554
9.96 556
10.02 526
10.08 587
10.14 567
10.2 528
10.26 576
10.32 563
10.38 543
10.44 537
10.5 551
10.56 543
10.62 560
10.68 520
10.74 584
10.8 538
10.86 532
10.92 570
10.98 571
11.04 573
11.1 584
11.16 555
11.22 589
11.28 543
11.34 592
11.4 558
11.46 591
11.52 558
11.58 563
11.64 551
11.7 538
11.76 614
11.82 565
11.88 579
11.94 565
12 528
12.06 574
12.12 587
12.18 567
12.24 567
12.3 604
12.36 569
12.42 558
12.48 578
12.54 580
12.6 588
12.66 573
12.72 599
12.78 599
12.84 568
12.9 593
12.96 622
13.02 539
13.08 593
13.14 577
13.2 548
13.26 619
13.32 619
13.38 586
13.44 641
13.5 586
13.56 627
13.62 582
13.68 605
13.74 620
13.8 607
13.86 649
13.92 665
13.98 651
14.04 637
14.1 622
14.16 712
14.22 680
14.28 642
14.34 671
14.4 655
14.46 694
14.52 713
14.58 648
14.64 690
14.7 695
14.76 675
14.82 684
14.88 679
14.94 734
15 673
15.06 711
15.12 706
15.18 701
15.24 728
15.3 735
15.36 705
15.42 729
15.48 757
15.54 720
15.6 781
15.66 697
15.72 784
15.78 763
15.84 734
15.9 755
15.96 776
16.02 822
16.08 779
16.14 812
16.2 823
16.26 813
16.32 817
16.38 797
16.44 812
16.5 815
16.56 831
16.62 888
16.68 918
16.74 909
16.8 916
16.86 950
16.92 1116
16.98 1306
17.04 1474
17.1 1073
17.16 941
17.22 940
17.28 938
17.34 904
17.4 927
17.46 933
17.52 977
17.58 938
17.64 998
17.7 1020
17.76 976
17.82 991
17.88 984
17.94 1032
18 1054
18.06 1069
18.12 1004
18.18 993
18.24 1107
18.3 1127
18.36 1121
18.42 1116
18.48 1116
18.54 1139
18.6 1024
18.66 1130
18.72 1115
18.78 1142
18.84 1128
18.9 1203
18.96 1237
19.02 1151
19.08 1150
19.14 1157
19.2 1174
19.26 1213
19.32 1224
19.38 1263
19.44 1259
19.5 1290
19.56 1219
19.62 1188
19.68 1330
19.74 1243
19.8 1385
19.86 1301
19.92 1343
19.98 1335
20 1368