File: xrd-UiO-67/pxrddata/36-7.ASC
3 2946
3.06 2455
3.12 2311
3.18 2302
3.24 2195
3.3 2049
3.36 2077
3.42 1848
3.48 1869
3.54 1726
3.6 1709
3.66 1646
3.72 1651
3.78 1588
3.84 1598
3.9 1577
3.96 1498
4.02 1441
4.08 1450
4.14 1364
4.2 1273
4.26 1265
4.32 1225
4.38 1103
4.44 1092
4.5 1064
4.56 1020
4.62 1056
4.68 982
4.74 966
4.8 983
4.86 942
4.92 946
4.98 958
5.04 1027
5.1 1063
5.16 1071
5.22 1151
5.28 1264
5.34 1495
5.4 1841
5.46 1594
5.52 1472
5.58 1543
5.64 1722
5.7 2034
5.76 2291
5.82 1542
5.88 977
5.94 877
6 821
6.06 732
6.12 746
6.18 727
6.24 733
6.3 730
6.36 645
6.42 687
6.48 661
6.54 643
6.6 717
6.66 698
6.72 746
6.78 746
6.84 646
6.9 604
6.96 618
7.02 575
7.08 577
7.14 567
7.2 613
7.26 598
7.32 591
7.38 599
7.44 545
7.5 591
7.56 559
7.62 545
7.68 540
7.74 553
7.8 602
7.86 557
7.92 597
7.98 589
8.04 535
8.1 529
8.16 574
8.22 558
8.28 549
8.34 508
8.4 543
8.46 512
8.52 506
8.58 525
8.64 538
8.7 527
8.76 498
8.82 505
8.88 573
8.94 613
9 602
9.06 616
9.12 640
9.18 745
9.24 880
9.3 1226
9.36 881
9.42 692
9.48 569
9.54 548
9.6 502
9.66 526
9.72 533
9.78 513
9.84 532
9.9 550
9.96 552
10.02 577
10.08 618
10.14 663
10.2 581
10.26 494
10.32 517
10.38 501
10.44 495
10.5 520
10.56 539
10.62 584
10.68 632
10.74 724
10.8 755
10.86 735
10.92 865
10.98 706
11.04 574
11.1 517
11.16 525
11.22 533
11.28 500
11.34 567
11.4 566
11.46 639
11.52 565
11.58 544
11.64 458
11.7 472
11.76 531
11.82 512
11.88 486
11.94 505
12 504
12.06 538
12.12 519
12.18 565
12.24 517
12.3 521
12.36 552
12.42 473
12.48 483
12.54 510
12.6 493
12.66 495
12.72 506
12.78 502
12.84 485
12.9 495
12.96 453
13.02 521
13.08 501
13.14 517
13.2 542
13.26 565
13.32 596
13.38 578
13.44 559
13.5 512
13.56 472
13.62 538
13.68 557
13.74 551
13.8 478
13.86 530
13.92 520
13.98 512
14.04 515
14.1 529
14.16 566
14.22 603
14.28 529
14.34 565
14.4 558
14.46 564
14.52 557
14.58 597
14.64 591
14.7 580
14.76 626
14.82 618
14.88 560
14.94 608
15 568
15.06 600
15.12 586
15.18 600
15.24 618
15.3 584
15.36 604
15.42 588
15.48 608
15.54 585
15.6 568
15.66 614
15.72 613
15.78 611
15.84 560
15.9 671
15.96 615
16.02 645
16.08 629
16.14 669
16.2 725
16.26 704
16.32 710
16.38 692
16.44 678
16.5 673
16.56 664
16.62 711
16.68 637
16.74 692
16.8 718
16.86 797
16.92 1043
16.98 1392
17.04 1069
17.1 819
17.16 740
17.22 837
17.28 765
17.34 763
17.4 742
17.46 813
17.52 765
17.58 762
17.64 767
17.7 798
17.76 789
17.82 831
17.88 840
17.94 818
18 821
18.06 798
18.12 777
18.18 806
18.24 852
18.3 897
18.36 868
18.42 849
18.48 837
18.54 974
18.6 956
18.66 947
18.72 916
18.78 960
18.84 920
18.9 978
18.96 1049
19.02 1032
19.08 1094
19.14 1063
19.2 1048
19.26 923
19.32 1026
19.38 1095
19.44 1208
19.5 1160
19.56 1170
19.62 1054
19.68 999
19.74 995
19.8 1050
19.86 1088
19.92 1040
19.98 1019
20 1064