File: xrd-UiO-67/pxrddata/36-8.ASC
3 2361
3.06 2007
3.12 1795
3.18 1792
3.24 1686
3.3 1646
3.36 1677
3.42 1634
3.48 1582
3.54 1569
3.6 1522
3.66 1488
3.72 1554
3.78 1550
3.84 1483
3.9 1497
3.96 1466
4.02 1423
4.08 1495
4.14 1380
4.2 1352
4.26 1329
4.32 1390
4.38 1357
4.44 1392
4.5 1308
4.56 1286
4.62 1273
4.68 1280
4.74 1225
4.8 1303
4.86 1226
4.92 1210
4.98 1271
5.04 1254
5.1 1210
5.16 1154
5.22 1262
5.28 1235
5.34 1298
5.4 1332
5.46 1288
5.52 1189
5.58 1142
5.64 1014
5.7 975
5.76 963
5.82 910
5.88 894
5.94 894
6 855
6.06 789
6.12 851
6.18 819
6.24 806
6.3 725
6.36 720
6.42 816
6.48 809
6.54 754
6.6 741
6.66 725
6.72 715
6.78 724
6.84 689
6.9 665
6.96 689
7.02 676
7.08 698
7.14 669
7.2 662
7.26 640
7.32 637
7.38 675
7.44 650
7.5 650
7.56 653
7.62 621
7.68 633
7.74 603
7.8 651
7.86 624
7.92 645
7.98 612
8.04 602
8.1 607
8.16 611
8.22 619
8.28 634
8.34 590
8.4 571
8.46 599
8.52 567
8.58 566
8.64 610
8.7 566
8.76 651
8.82 567
8.88 613
8.94 577
9 583
9.06 579
9.12 586
9.18 625
9.24 561
9.3 626
9.36 626
9.42 613
9.48 580
9.54 570
9.6 606
9.66 536
9.72 576
9.78 577
9.84 559
9.9 548
9.96 529
10.02 542
10.08 525
10.14 520
10.2 487
10.26 546
10.32 534
10.38 538
10.44 511
10.5 508
10.56 533
10.62 516
10.68 525
10.74 504
10.8 530
10.86 561
10.92 569
10.98 527
11.04 526
11.1 506
11.16 503
11.22 511
11.28 471
11.34 552
11.4 500
11.46 463
11.52 498
11.58 492
11.64 536
11.7 519
11.76 496
11.82 502
11.88 481
11.94 483
12 506
12.06 471
12.12 519
12.18 485
12.24 493
12.3 486
12.36 504
12.42 479
12.48 532
12.54 499
12.6 504
12.66 493
12.72 525
12.78 500
12.84 499
12.9 496
12.96 527
13.02 520
13.08 491
13.14 526
13.2 528
13.26 494
13.32 501
13.38 513
13.44 490
13.5 494
13.56 508
13.62 509
13.68 506
13.74 487
13.8 561
13.86 538
13.92 502
13.98 544
14.04 547
14.1 579
14.16 523
14.22 552
14.28 530
14.34 529
14.4 588
14.46 535
14.52 568
14.58 552
14.64 589
14.7 573
14.76 562
14.82 537
14.88 548
14.94 590
15 571
15.06 572
15.12 533
15.18 568
15.24 566
15.3 617
15.36 569
15.42 598
15.48 552
15.54 617
15.6 572
15.66 610
15.72 553
15.78 576
15.84 634
15.9 623
15.96 632
16.02 604
16.08 623
16.14 664
16.2 669
16.26 657
16.32 634
16.38 686
16.44 640
16.5 674
16.56 645
16.62 647
16.68 678
16.74 706
16.8 759
16.86 857
16.92 988
16.98 1611
17.04 2492
17.1 1199
17.16 765
17.22 729
17.28 753
17.34 740
17.4 727
17.46 740
17.52 742
17.58 764
17.64 736
17.7 701
17.76 766
17.82 762
17.88 796
17.94 840
18 747
18.06 775
18.12 808
18.18 771
18.24 799
18.3 774
18.36 813
18.42 797
18.48 798
18.54 833
18.6 868
18.66 907
18.72 829
18.78 874
18.84 837
18.9 861
18.96 847
19.02 853
19.08 901
19.14 858
19.2 889
19.26 872
19.32 865
19.38 855
19.44 879
19.5 891
19.56 908
19.62 937
19.68 915
19.74 958
19.8 959
19.86 894
19.92 987
19.98 945
20 1005