File: xrd-UiO-67/pxrddata/36-9.ASC
3 2913
3.06 2509
3.12 2318
3.18 2204
3.24 2185
3.3 2160
3.36 1969
3.42 1966
3.48 1939
3.54 1791
3.6 1731
3.66 1758
3.72 1699
3.78 1570
3.84 1581
3.9 1453
3.96 1440
4.02 1405
4.08 1355
4.14 1271
4.2 1292
4.26 1177
4.32 1096
4.38 1148
4.44 1083
4.5 1037
4.56 1011
4.62 980
4.68 910
4.74 897
4.8 918
4.86 837
4.92 838
4.98 796
5.04 774
5.1 744
5.16 756
5.22 699
5.28 710
5.34 731
5.4 695
5.46 704
5.52 650
5.58 679
5.64 630
5.7 656
5.76 656
5.82 618
5.88 622
5.94 616
6 584
6.06 572
6.12 598
6.18 610
6.24 603
6.3 647
6.36 606
6.42 601
6.48 680
6.54 564
6.6 603
6.66 606
6.72 569
6.78 597
6.84 589
6.9 573
6.96 571
7.02 552
7.08 601
7.14 560
7.2 584
7.26 551
7.32 581
7.38 491
7.44 551
7.5 542
7.56 557
7.62 565
7.68 571
7.74 555
7.8 534
7.86 559
7.92 488
7.98 509
8.04 471
8.1 542
8.16 533
8.22 518
8.28 521
8.34 527
8.4 507
8.46 506
8.52 537
8.58 524
8.64 606
8.7 585
8.76 717
8.82 741
8.88 870
8.94 1318
9 1412
9.06 1047
9.12 804
9.18 554
9.24 499
9.3 495
9.36 492
9.42 492
9.48 474
9.54 494
9.6 503
9.66 491
9.72 518
9.78 572
9.84 570
9.9 683
9.96 606
10.02 559
10.08 501
10.14 488
10.2 460
10.26 475
10.32 476
10.38 440
10.44 463
10.5 436
10.56 463
10.62 429
10.68 456
10.74 452
10.8 476
10.86 474
10.92 463
10.98 414
11.04 444
11.1 441
11.16 422
11.22 470
11.28 448
11.34 454
11.4 480
11.46 458
11.52 473
11.58 472
11.64 429
11.7 429
11.76 428
11.82 444
11.88 429
11.94 451
12 453
12.06 434
12.12 459
12.18 425
12.24 445
12.3 470
12.36 435
12.42 450
12.48 467
12.54 472
12.6 550
12.66 538
12.72 532
12.78 510
12.84 472
12.9 471
12.96 430
13.02 446
13.08 469
13.14 469
13.2 452
13.26 509
13.32 524
13.38 540
13.44 537
13.5 528
13.56 459
13.62 478
13.68 510
13.74 464
13.8 451
13.86 440
13.92 471
13.98 488
14.04 476
14.1 472
14.16 479
14.22 504
14.28 458
14.34 472
14.4 458
14.46 458
14.52 467
14.58 471
14.64 454
14.7 458
14.76 506
14.82 472
14.88 514
14.94 521
15 534
15.06 512
15.12 472
15.18 491
15.24 542
15.3 523
15.36 547
15.42 514
15.48 533
15.54 518
15.6 521
15.66 511
15.72 498
15.78 541
15.84 512
15.9 516
15.96 575
16.02 552
16.08 543
16.14 543
16.2 542
16.26 523
16.32 595
16.38 574
16.44 591
16.5 587
16.56 631
16.62 593
16.68 633
16.74 741
16.8 881
16.86 1040
16.92 1487
16.98 1689
17.04 1074
17.1 814
17.16 691
17.22 655
17.28 651
17.34 645
17.4 622
17.46 647
17.52 670
17.58 650
17.64 649
17.7 686
17.76 673
17.82 702
17.88 694
17.94 719
18 749
18.06 760
18.12 731
18.18 693
18.24 741
18.3 729
18.36 723
18.42 706
18.48 772
18.54 746
18.6 796
18.66 786
18.72 759
18.78 733
18.84 742
18.9 807
18.96 762
19.02 749
19.08 794
19.14 758
19.2 777
19.26 779
19.32 720
19.38 738
19.44 791
19.5 806
19.56 807
19.62 799
19.68 827
19.74 838
19.8 875
19.86 890
19.92 904
19.98 865
20 885