File: xrd-UiO-67/pxrddata/37-13-1.ASC
3 2492
3.06 2009
3.12 1802
3.18 1704
3.24 1707
3.3 1604
3.36 1575
3.42 1569
3.48 1475
3.54 1475
3.6 1443
3.66 1409
3.72 1310
3.78 1342
3.84 1287
3.9 1267
3.96 1298
4.02 1277
4.08 1191
4.14 1177
4.2 1168
4.26 1241
4.32 1173
4.38 1128
4.44 1144
4.5 1166
4.56 1105
4.62 1062
4.68 1151
4.74 1026
4.8 1074
4.86 1096
4.92 1004
4.98 1051
5.04 1117
5.1 1077
5.16 1055
5.22 1156
5.28 1118
5.34 1190
5.4 1202
5.46 1172
5.52 1052
5.58 1027
5.64 991
5.7 942
5.76 982
5.82 873
5.88 887
5.94 894
6 822
6.06 854
6.12 877
6.18 836
6.24 826
6.3 774
6.36 778
6.42 769
6.48 764
6.54 738
6.6 723
6.66 679
6.72 718
6.78 759
6.84 712
6.9 725
6.96 724
7.02 673
7.08 696
7.14 695
7.2 688
7.26 683
7.32 701
7.38 688
7.44 654
7.5 690
7.56 737
7.62 652
7.68 677
7.74 657
7.8 623
7.86 663
7.92 632
7.98 617
8.04 640
8.1 654
8.16 622
8.22 639
8.28 642
8.34 583
8.4 610
8.46 612
8.52 599
8.58 637
8.64 628
8.7 610
8.76 607
8.82 638
8.88 659
8.94 626
9 615
9.06 639
9.12 641
9.18 646
9.24 675
9.3 727
9.36 738
9.42 696
9.48 711
9.54 653
9.6 660
9.66 621
9.72 668
9.78 610
9.84 629
9.9 607
9.96 615
10.02 602
10.08 623
10.14 604
10.2 578
10.26 590
10.32 575
10.38 574
10.44 600
10.5 584
10.56 573
10.62 596
10.68 589
10.74 547
10.8 610
10.86 629
10.92 546
10.98 568
11.04 572
11.1 621
11.16 595
11.22 582
11.28 596
11.34 552
11.4 567
11.46 574
11.52 570
11.58 599
11.64 587
11.7 587
11.76 612
11.82 634
11.88 612
11.94 538
12 580
12.06 582
12.12 578
12.18 534
12.24 574
12.3 662
12.36 574
12.42 601
12.48 589
12.54 631
12.6 589
12.66 612
12.72 585
12.78 586
12.84 554
12.9 620
12.96 602
13.02 594
13.08 627
13.14 600
13.2 592
13.26 612
13.32 595
13.38 613
13.44 644
13.5 662
13.56 646
13.62 589
13.68 636
13.74 642
13.8 630
13.86 618
13.92 635
13.98 688
14.04 639
14.1 678
14.16 621
14.22 674
14.28 637
14.34 700
14.4 688
14.46 654
14.52 675
14.58 678
14.64 656
14.7 646
14.76 727
14.82 688
14.88 698
14.94 728
15 663
15.06 697
15.12 725
15.18 739
15.24 684
15.3 689
15.36 717
15.42 693
15.48 688
15.54 786
15.6 735
15.66 706
15.72 719
15.78 769
15.84 712
15.9 718
15.96 749
16.02 722
16.08 744
16.14 714
16.2 780
16.26 771
16.32 761
16.38 767
16.44 747
16.5 779
16.56 807
16.62 838
16.68 814
16.74 875
16.8 908
16.86 975
16.92 1145
16.98 1405
17.04 1032
17.1 891
17.16 871
17.22 939
17.28 884
17.34 911
17.4 922
17.46 916
17.52 872
17.58 874
17.64 927
17.7 922
17.76 924
17.82 912
17.88 998
17.94 946
18 924
18.06 953
18.12 969
18.18 984
18.24 986
18.3 1031
18.36 935
18.42 1050
18.48 1004
18.54 950
18.6 1002
18.66 1013
18.72 1066
18.78 1088
18.84 1086
18.9 1054
18.96 1082
19.02 1105
19.08 1084
19.14 1036
19.2 1115
19.26 1075
19.32 1119
19.38 1134
19.44 1141
19.5 1138
19.56 1141
19.62 1251
19.68 1173
19.74 1183
19.8 1209
19.86 1128
19.92 1205
19.98 1155
20 1190