File: xrd-UiO-67/pxrddata/37-14.ASC
3 2266
3.06 1865
3.12 1624
3.18 1544
3.24 1601
3.3 1446
3.36 1387
3.42 1415
3.48 1336
3.54 1281
3.6 1316
3.66 1254
3.72 1231
3.78 1153
3.84 1182
3.9 1116
3.96 1042
4.02 1085
4.08 1049
4.14 1024
4.2 1042
4.26 989
4.32 1047
4.38 990
4.44 1007
4.5 992
4.56 962
4.62 925
4.68 953
4.74 948
4.8 902
4.86 938
4.92 905
4.98 919
5.04 912
5.1 909
5.16 897
5.22 887
5.28 932
5.34 922
5.4 888
5.46 991
5.52 961
5.58 872
5.64 874
5.7 803
5.76 775
5.82 766
5.88 789
5.94 722
6 750
6.06 737
6.12 707
6.18 690
6.24 713
6.3 650
6.36 664
6.42 671
6.48 637
6.54 632
6.6 620
6.66 629
6.72 639
6.78 674
6.84 615
6.9 605
6.96 630
7.02 646
7.08 637
7.14 609
7.2 605
7.26 636
7.32 651
7.38 596
7.44 582
7.5 615
7.56 601
7.62 593
7.68 590
7.74 593
7.8 570
7.86 582
7.92 599
7.98 559
8.04 599
8.1 559
8.16 547
8.22 623
8.28 572
8.34 581
8.4 612
8.46 568
8.52 564
8.58 577
8.64 579
8.7 594
8.76 558
8.82 628
8.88 578
8.94 551
9 580
9.06 596
9.12 573
9.18 560
9.24 582
9.3 593
9.36 605
9.42 675
9.48 587
9.54 581
9.6 567
9.66 568
9.72 573
9.78 574
9.84 564
9.9 575
9.96 496
10.02 548
10.08 543
10.14 573
10.2 523
10.26 553
10.32 525
10.38 551
10.44 538
10.5 523
10.56 542
10.62 519
10.68 537
10.74 550
10.8 623
10.86 559
10.92 539
10.98 545
11.04 572
11.1 531
11.16 514
11.22 550
11.28 528
11.34 550
11.4 527
11.46 529
11.52 514
11.58 527
11.64 560
11.7 561
11.76 524
11.82 564
11.88 565
11.94 557
12 559
12.06 536
12.12 572
12.18 528
12.24 542
12.3 590
12.36 559
12.42 580
12.48 572
12.54 580
12.6 598
12.66 573
12.72 582
12.78 525
12.84 586
12.9 561
12.96 572
13.02 576
13.08 589
13.14 577
13.2 608
13.26 590
13.32 606
13.38 610
13.44 563
13.5 575
13.56 603
13.62 633
13.68 657
13.74 592
13.8 593
13.86 612
13.92 622
13.98 607
14.04 620
14.1 634
14.16 624
14.22 666
14.28 671
14.34 641
14.4 671
14.46 647
14.52 629
14.58 650
14.64 677
14.7 651
14.76 673
14.82 685
14.88 669
14.94 639
15 708
15.06 675
15.12 716
15.18 705
15.24 736
15.3 719
15.36 732
15.42 704
15.48 743
15.54 705
15.6 733
15.66 726
15.72 687
15.78 713
15.84 736
15.9 803
15.96 726
16.02 770
16.08 794
16.14 754
16.2 812
16.26 833
16.32 782
16.38 837
16.44 826
16.5 798
16.56 784
16.62 836
16.68 864
16.74 873
16.8 888
16.86 961
16.92 890
16.98 1138
17.04 1308
17.1 1196
17.16 925
17.22 950
17.28 897
17.34 960
17.4 949
17.46 913
17.52 904
17.58 952
17.64 968
17.7 963
17.76 983
17.82 955
17.88 1000
17.94 988
18 1002
18.06 969
18.12 1036
18.18 1027
18.24 1027
18.3 1060
18.36 1056
18.42 1004
18.48 1068
18.54 1062
18.6 1116
18.66 1085
18.72 1104
18.78 1200
18.84 1119
18.9 1092
18.96 1128
19.02 1137
19.08 1158
19.14 1173
19.2 1145
19.26 1204
19.32 1222
19.38 1184
19.44 1225
19.5 1344
19.56 1231
19.62 1252
19.68 1247
19.74 1243
19.8 1263
19.86 1268
19.92 1314
19.98 1301
20 1242