File: xrd-UiO-67/pxrddata/37-12.ASC
3 2457
3.06 1970
3.12 1708
3.18 1691
3.24 1500
3.3 1504
3.36 1543
3.42 1428
3.48 1437
3.54 1343
3.6 1336
3.66 1327
3.72 1226
3.78 1253
3.84 1241
3.9 1215
3.96 1215
4.02 1145
4.08 1184
4.14 1147
4.2 1132
4.26 1129
4.32 1111
4.38 1123
4.44 1131
4.5 1058
4.56 1153
4.62 1130
4.68 1118
4.74 1162
4.8 1126
4.86 1068
4.92 997
4.98 1044
5.04 1047
5.1 1082
5.16 1095
5.22 1102
5.28 1188
5.34 1236
5.4 1296
5.46 1260
5.52 1010
5.58 958
5.64 945
5.7 889
5.76 883
5.82 869
5.88 873
5.94 837
6 831
6.06 772
6.12 818
6.18 810
6.24 769
6.3 748
6.36 828
6.42 706
6.48 754
6.54 738
6.6 788
6.66 725
6.72 753
6.78 729
6.84 703
6.9 700
6.96 743
7.02 710
7.08 706
7.14 723
7.2 757
7.26 662
7.32 711
7.38 677
7.44 710
7.5 691
7.56 739
7.62 725
7.68 676
7.74 684
7.8 687
7.86 673
7.92 661
7.98 693
8.04 667
8.1 643
8.16 687
8.22 687
8.28 650
8.34 661
8.4 666
8.46 653
8.52 640
8.58 664
8.64 629
8.7 653
8.76 609
8.82 682
8.88 638
8.94 671
9 668
9.06 669
9.12 681
9.18 692
9.24 660
9.3 689
9.36 765
9.42 725
9.48 688
9.54 664
9.6 679
9.66 611
9.72 650
9.78 633
9.84 598
9.9 666
9.96 652
10.02 598
10.08 627
10.14 606
10.2 616
10.26 595
10.32 611
10.38 604
10.44 608
10.5 569
10.56 642
10.62 633
10.68 670
10.74 684
10.8 677
10.86 632
10.92 650
10.98 665
11.04 632
11.1 623
11.16 633
11.22 598
11.28 627
11.34 597
11.4 593
11.46 619
11.52 608
11.58 613
11.64 633
11.7 586
11.76 635
11.82 578
11.88 573
11.94 602
12 614
12.06 608
12.12 609
12.18 598
12.24 608
12.3 585
12.36 670
12.42 644
12.48 609
12.54 598
12.6 579
12.66 651
12.72 629
12.78 602
12.84 617
12.9 664
12.96 666
13.02 637
13.08 620
13.14 612
13.2 629
13.26 706
13.32 646
13.38 636
13.44 660
13.5 645
13.56 686
13.62 669
13.68 625
13.74 709
13.8 697
13.86 689
13.92 702
13.98 681
14.04 689
14.1 658
14.16 687
14.22 722
14.28 686
14.34 696
14.4 679
14.46 715
14.52 756
14.58 696
14.64 719
14.7 721
14.76 707
14.82 703
14.88 742
14.94 712
15 710
15.06 751
15.12 794
15.18 769
15.24 766
15.3 737
15.36 764
15.42 809
15.48 799
15.54 822
15.6 807
15.66 766
15.72 807
15.78 831
15.84 790
15.9 810
15.96 777
16.02 841
16.08 803
16.14 828
16.2 810
16.26 825
16.32 937
16.38 857
16.44 841
16.5 875
16.56 829
16.62 907
16.68 864
16.74 938
16.8 894
16.86 967
16.92 1076
16.98 1306
17.04 1501
17.1 1181
17.16 1017
17.22 933
17.28 952
17.34 988
17.4 959
17.46 982
17.52 1024
17.58 950
17.64 1002
17.7 1040
17.76 1018
17.82 1057
17.88 1070
17.94 1069
18 1031
18.06 1086
18.12 1068
18.18 1070
18.24 1066
18.3 1044
18.36 1124
18.42 1114
18.48 1092
18.54 1207
18.6 1112
18.66 1100
18.72 1227
18.78 1198
18.84 1212
18.9 1146
18.96 1191
19.02 1200
19.08 1255
19.14 1184
19.2 1198
19.26 1201
19.32 1277
19.38 1234
19.44 1294
19.5 1359
19.56 1351
19.62 1266
19.68 1287
19.74 1394
19.8 1351
19.86 1372
19.92 1357
19.98 1380
20 1360