File: xrd-UiO-67/pxrddata/37-15.ASC
3 2549
3.06 2202
3.12 1908
3.18 1839
3.24 1817
3.3 1701
3.36 1612
3.42 1651
3.48 1545
3.54 1478
3.6 1463
3.66 1381
3.72 1391
3.78 1326
3.84 1371
3.9 1291
3.96 1241
4.02 1214
4.08 1170
4.14 1156
4.2 1157
4.26 1118
4.32 1127
4.38 1085
4.44 1042
4.5 1100
4.56 1101
4.62 1058
4.68 982
4.74 1002
4.8 1029
4.86 1061
4.92 995
4.98 992
5.04 1067
5.1 989
5.16 1013
5.22 1052
5.28 1097
5.34 1103
5.4 1231
5.46 1285
5.52 1265
5.58 1092
5.64 950
5.7 938
5.76 897
5.82 899
5.88 875
5.94 805
6 832
6.06 773
6.12 804
6.18 807
6.24 798
6.3 771
6.36 753
6.42 725
6.48 722
6.54 765
6.6 710
6.66 759
6.72 688
6.78 717
6.84 713
6.9 745
6.96 730
7.02 721
7.08 701
7.14 649
7.2 733
7.26 719
7.32 697
7.38 701
7.44 651
7.5 648
7.56 682
7.62 658
7.68 657
7.74 620
7.8 636
7.86 678
7.92 651
7.98 659
8.04 667
8.1 659
8.16 590
8.22 640
8.28 652
8.34 607
8.4 646
8.46 626
8.52 583
8.58 605
8.64 612
8.7 637
8.76 631
8.82 586
8.88 633
8.94 634
9 566
9.06 616
9.12 621
9.18 628
9.24 680
9.3 669
9.36 730
9.42 740
9.48 731
9.54 690
9.6 605
9.66 596
9.72 584
9.78 590
9.84 596
9.9 621
9.96 597
10.02 590
10.08 556
10.14 601
10.2 622
10.26 563
10.32 542
10.38 590
10.44 630
10.5 605
10.56 609
10.62 596
10.68 613
10.74 621
10.8 630
10.86 611
10.92 596
10.98 598
11.04 610
11.1 604
11.16 588
11.22 571
11.28 614
11.34 571
11.4 561
11.46 553
11.52 597
11.58 565
11.64 543
11.7 561
11.76 548
11.82 553
11.88 569
11.94 603
12 579
12.06 593
12.12 580
12.18 609
12.24 548
12.3 560
12.36 587
12.42 531
12.48 601
12.54 575
12.6 621
12.66 600
12.72 591
12.78 619
12.84 591
12.9 629
12.96 616
13.02 604
13.08 578
13.14 625
13.2 625
13.26 608
13.32 566
13.38 618
13.44 595
13.5 582
13.56 560
13.62 644
13.68 638
13.74 589
13.8 643
13.86 635
13.92 631
13.98 625
14.04 668
14.1 665
14.16 637
14.22 656
14.28 646
14.34 629
14.4 645
14.46 646
14.52 668
14.58 685
14.64 617
14.7 687
14.76 721
14.82 691
14.88 669
14.94 669
15 710
15.06 673
15.12 711
15.18 680
15.24 697
15.3 744
15.36 726
15.42 685
15.48 737
15.54 730
15.6 716
15.66 691
15.72 757
15.78 721
15.84 745
15.9 726
15.96 798
16.02 766
16.08 775
16.14 806
16.2 825
16.26 791
16.32 808
16.38 795
16.44 788
16.5 787
16.56 852
16.62 790
16.68 810
16.74 817
16.8 893
16.86 917
16.92 1111
16.98 1192
17.04 1430
17.1 1337
17.16 973
17.22 968
17.28 901
17.34 914
17.4 908
17.46 940
17.52 882
17.58 938
17.64 931
17.7 920
17.76 956
17.82 945
17.88 950
17.94 1041
18 970
18.06 958
18.12 995
18.18 969
18.24 1046
18.3 992
18.36 1050
18.42 1047
18.48 986
18.54 1033
18.6 980
18.66 1051
18.72 1080
18.78 1085
18.84 1126
18.9 1156
18.96 1090
19.02 1131
19.08 1140
19.14 1107
19.2 1152
19.26 1223
19.32 1174
19.38 1252
19.44 1181
19.5 1197
19.56 1267
19.62 1211
19.68 1208
19.74 1258
19.8 1225
19.86 1201
19.92 1264
19.98 1296
20 1287