File: xrd-UiO-67/pxrddata/37-18.ASC
3 2228
3.06 1817
3.12 1550
3.18 1503
3.24 1505
3.3 1382
3.36 1349
3.42 1334
3.48 1293
3.54 1290
3.6 1251
3.66 1251
3.72 1157
3.78 1199
3.84 1176
3.9 1114
3.96 1181
4.02 1061
4.08 1103
4.14 1029
4.2 984
4.26 1049
4.32 1043
4.38 1016
4.44 1036
4.5 1036
4.56 1033
4.62 1037
4.68 992
4.74 1000
4.8 991
4.86 984
4.92 1016
4.98 1014
5.04 965
5.1 1051
5.16 1061
5.22 1170
5.28 1251
5.34 1363
5.4 1635
5.46 2138
5.52 1477
5.58 1159
5.64 1018
5.7 992
5.76 915
5.82 908
5.88 830
5.94 810
6 751
6.06 739
6.12 681
6.18 696
6.24 687
6.3 686
6.36 694
6.42 740
6.48 685
6.54 687
6.6 679
6.66 647
6.72 648
6.78 642
6.84 607
6.9 661
6.96 692
7.02 654
7.08 609
7.14 580
7.2 607
7.26 630
7.32 586
7.38 597
7.44 622
7.5 641
7.56 590
7.62 608
7.68 631
7.74 603
7.8 584
7.86 628
7.92 573
7.98 588
8.04 592
8.1 576
8.16 570
8.22 590
8.28 582
8.34 610
8.4 603
8.46 615
8.52 565
8.58 551
8.64 593
8.7 630
8.76 599
8.82 599
8.88 596
8.94 597
9 586
9.06 579
9.12 668
9.18 668
9.24 736
9.3 859
9.36 1030
9.42 932
9.48 695
9.54 680
9.6 607
9.66 575
9.72 601
9.78 552
9.84 584
9.9 568
9.96 614
10.02 592
10.08 617
10.14 564
10.2 600
10.26 571
10.32 604
10.38 554
10.44 592
10.5 574
10.56 596
10.62 576
10.68 614
10.74 759
10.8 861
10.86 783
10.92 669
10.98 647
11.04 659
11.1 627
11.16 584
11.22 568
11.28 546
11.34 564
11.4 555
11.46 566
11.52 598
11.58 601
11.64 567
11.7 580
11.76 569
11.82 558
11.88 539
11.94 547
12 583
12.06 561
12.12 560
12.18 568
12.24 622
12.3 662
12.36 635
12.42 604
12.48 601
12.54 595
12.6 630
12.66 582
12.72 592
12.78 612
12.84 590
12.9 590
12.96 592
13.02 599
13.08 599
13.14 603
13.2 592
13.26 601
13.32 657
13.38 588
13.44 614
13.5 630
13.56 636
13.62 618
13.68 632
13.74 639
13.8 590
13.86 675
13.92 633
13.98 639
14.04 620
14.1 622
14.16 661
14.22 627
14.28 717
14.34 691
14.4 675
14.46 651
14.52 627
14.58 684
14.64 628
14.7 662
14.76 672
14.82 694
14.88 697
14.94 691
15 652
15.06 683
15.12 681
15.18 685
15.24 737
15.3 725
15.36 755
15.42 741
15.48 727
15.54 689
15.6 744
15.66 675
15.72 732
15.78 716
15.84 732
15.9 745
15.96 690
16.02 747
16.08 762
16.14 735
16.2 764
16.26 729
16.32 740
16.38 778
16.44 822
16.5 840
16.56 863
16.62 812
16.68 846
16.74 938
16.8 921
16.86 1035
16.92 1401
16.98 2347
17.04 5006
17.1 4382
17.16 1298
17.22 1051
17.28 955
17.34 942
17.4 981
17.46 998
17.52 994
17.58 948
17.64 975
17.7 991
17.76 954
17.82 966
17.88 951
17.94 951
18 1007
18.06 951
18.12 1020
18.18 1026
18.24 1011
18.3 983
18.36 988
18.42 998
18.48 1041
18.54 1039
18.6 1090
18.66 1075
18.72 1124
18.78 1098
18.84 1102
18.9 1076
18.96 1104
19.02 1078
19.08 1117
19.14 1152
19.2 1120
19.26 1170
19.32 1128
19.38 1206
19.44 1255
19.5 1322
19.56 1260
19.62 1258
19.68 1138
19.74 1247
19.8 1247
19.86 1220
19.92 1228
19.98 1255
20 1261