File: xrd-UiO-67/pxrddata/37-1.ASC
3 1946
3.06 1599
3.12 1421
3.18 1400
3.24 1275
3.3 1347
3.36 1315
3.42 1217
3.48 1267
3.54 1202
3.6 1166
3.66 1158
3.72 1115
3.78 1203
3.84 1108
3.9 1129
3.96 1080
4.02 1133
4.08 1096
4.14 1021
4.2 1070
4.26 1094
4.32 1018
4.38 975
4.44 985
4.5 984
4.56 1034
4.62 980
4.68 987
4.74 914
4.8 973
4.86 947
4.92 933
4.98 922
5.04 938
5.1 937
5.16 920
5.22 874
5.28 879
5.34 854
5.4 864
5.46 916
5.52 923
5.58 856
5.64 799
5.7 842
5.76 870
5.82 829
5.88 795
5.94 769
6 788
6.06 734
6.12 715
6.18 740
6.24 745
6.3 690
6.36 660
6.42 703
6.48 667
6.54 643
6.6 634
6.66 620
6.72 617
6.78 603
6.84 621
6.9 634
6.96 602
7.02 603
7.08 570
7.14 608
7.2 567
7.26 566
7.32 589
7.38 555
7.44 494
7.5 513
7.56 595
7.62 519
7.68 492
7.74 524
7.8 497
7.86 529
7.92 499
7.98 540
8.04 552
8.1 516
8.16 506
8.22 471
8.28 513
8.34 516
8.4 511
8.46 505
8.52 459
8.58 518
8.64 475
8.7 467
8.76 473
8.82 461
8.88 516
8.94 500
9 492
9.06 462
9.12 483
9.18 468
9.24 501
9.3 510
9.36 498
9.42 540
9.48 472
9.54 487
9.6 493
9.66 487
9.72 486
9.78 460
9.84 493
9.9 491
9.96 441
10.02 491
10.08 465
10.14 467
10.2 439
10.26 429
10.32 454
10.38 446
10.44 445
10.5 425
10.56 407
10.62 418
10.68 444
10.74 455
10.8 438
10.86 423
10.92 436
10.98 434
11.04 420
11.1 449
11.16 450
11.22 416
11.28 404
11.34 436
11.4 431
11.46 426
11.52 445
11.58 425
11.64 422
11.7 460
11.76 444
11.82 405
11.88 411
11.94 427
12 402
12.06 417
12.12 415
12.18 398
12.24 399
12.3 440
12.36 410
12.42 409
12.48 405
12.54 399
12.6 405
12.66 439
12.72 400
12.78 423
12.84 437
12.9 445
12.96 436
13.02 388
13.08 416
13.14 455
13.2 447
13.26 465
13.32 457
13.38 445
13.44 436
13.5 447
13.56 409
13.62 454
13.68 431
13.74 442
13.8 457
13.86 430
13.92 449
13.98 448
14.04 437
14.1 467
14.16 447
14.22 478
14.28 449
14.34 458
14.4 447
14.46 441
14.52 486
14.58 460
14.64 464
14.7 462
14.76 479
14.82 463
14.88 479
14.94 488
15 475
15.06 451
15.12 460
15.18 461
15.24 490
15.3 459
15.36 507
15.42 493
15.48 449
15.54 467
15.6 452
15.66 522
15.72 493
15.78 504
15.84 512
15.9 483
15.96 499
16.02 496
16.08 495
16.14 505
16.2 500
16.26 522
16.32 512
16.38 529
16.44 549
16.5 501
16.56 499
16.62 543
16.68 528
16.74 546
16.8 522
16.86 586
16.92 618
16.98 660
17.04 733
17.1 655
17.16 599
17.22 627
17.28 562
17.34 565
17.4 616
17.46 630
17.52 638
17.58 567
17.64 558
17.7 587
17.76 573
17.82 582
17.88 571
17.94 599
18 587
18.06 588
18.12 644
18.18 610
18.24 615
18.3 609
18.36 647
18.42 681
18.48 669
18.54 596
18.6 645
18.66 711
18.72 702
18.78 664
18.84 663
18.9 633
18.96 686
19.02 684
19.08 667
19.14 684
19.2 690
19.26 722
19.32 680
19.38 713
19.44 735
19.5 756
19.56 725
19.62 689
19.68 702
19.74 683
19.8 659
19.86 795
19.92 749
19.98 712
20 757