File: xrd-UiO-67/pxrddata/37-19.ASC
3 3264
3.06 2772
3.12 2567
3.18 2439
3.24 2281
3.3 2266
3.36 2158
3.42 1998
3.48 1968
3.54 1914
3.6 1777
3.66 1699
3.72 1677
3.78 1667
3.84 1598
3.9 1547
3.96 1483
4.02 1357
4.08 1328
4.14 1259
4.2 1234
4.26 1250
4.32 1160
4.38 1045
4.44 1101
4.5 1028
4.56 980
4.62 985
4.68 979
4.74 991
4.8 882
4.86 943
4.92 923
4.98 889
5.04 860
5.1 863
5.16 809
5.22 845
5.28 845
5.34 817
5.4 767
5.46 817
5.52 756
5.58 740
5.64 712
5.7 740
5.76 722
5.82 767
5.88 696
5.94 774
6 700
6.06 760
6.12 736
6.18 685
6.24 692
6.3 676
6.36 670
6.42 756
6.48 684
6.54 712
6.6 664
6.66 680
6.72 717
6.78 684
6.84 707
6.9 716
6.96 664
7.02 657
7.08 661
7.14 666
7.2 629
7.26 663
7.32 698
7.38 671
7.44 648
7.5 663
7.56 692
7.62 667
7.68 663
7.74 710
7.8 650
7.86 708
7.92 743
7.98 718
8.04 674
8.1 672
8.16 685
8.22 685
8.28 709
8.34 684
8.4 716
8.46 676
8.52 732
8.58 765
8.64 773
8.7 875
8.76 995
8.82 1185
8.88 1467
8.94 1913
9 3589
9.06 4192
9.12 993
9.18 756
9.24 706
9.3 652
9.36 630
9.42 674
9.48 650
9.54 709
9.6 698
9.66 802
9.72 839
9.78 982
9.84 1192
9.9 1501
9.96 2510
10.02 2063
10.08 793
10.14 696
10.2 655
10.26 636
10.32 626
10.38 637
10.44 646
10.5 619
10.56 681
10.62 620
10.68 610
10.74 651
10.8 613
10.86 601
10.92 612
10.98 622
11.04 657
11.1 612
11.16 580
11.22 612
11.28 554
11.34 649
11.4 620
11.46 625
11.52 617
11.58 613
11.64 611
11.7 568
11.76 604
11.82 624
11.88 623
11.94 619
12 593
12.06 612
12.12 679
12.18 622
12.24 616
12.3 613
12.36 633
12.42 702
12.48 689
12.54 683
12.6 721
12.66 786
12.72 997
12.78 1045
12.84 766
12.9 639
12.96 651
13.02 671
13.08 667
13.14 754
13.2 728
13.26 814
13.32 911
13.38 1157
13.44 1652
13.5 1129
13.56 770
13.62 688
13.68 678
13.74 638
13.8 705
13.86 623
13.92 650
13.98 681
14.04 739
14.1 691
14.16 685
14.22 713
14.28 698
14.34 716
14.4 681
14.46 783
14.52 663
14.58 712
14.64 727
14.7 738
14.76 700
14.82 744
14.88 779
14.94 749
15 753
15.06 769
15.12 746
15.18 761
15.24 783
15.3 769
15.36 763
15.42 844
15.48 752
15.54 738
15.6 833
15.66 775
15.72 821
15.78 824
15.84 807
15.9 850
15.96 788
16.02 880
16.08 826
16.14 791
16.2 865
16.26 809
16.32 872
16.38 887
16.44 931
16.5 863
16.56 824
16.62 937
16.68 929
16.74 988
16.8 1025
16.86 1080
16.92 1228
16.98 1552
17.04 1754
17.1 1191
17.16 1023
17.22 977
17.28 964
17.34 975
17.4 1030
17.46 982
17.52 997
17.58 1081
17.64 1046
17.7 1033
17.76 1060
17.82 1052
17.88 1133
17.94 1059
18 1201
18.06 1249
18.12 1104
18.18 1100
18.24 1097
18.3 1110
18.36 1193
18.42 1135
18.48 1244
18.54 1270
18.6 1307
18.66 1266
18.72 1270
18.78 1189
18.84 1210
18.9 1195
18.96 1245
19.02 1218
19.08 1257
19.14 1306
19.2 1310
19.26 1270
19.32 1265
19.38 1344
19.44 1367
19.5 1379
19.56 1346
19.62 1365
19.68 1405
19.74 1402
19.8 1400
19.86 1517
19.92 1707
19.98 1855
20 1708