File: xrd-UiO-67/pxrddata/37-10.ASC
3 2300
3.06 1895
3.12 1589
3.18 1615
3.24 1532
3.3 1501
3.36 1483
3.42 1396
3.48 1332
3.54 1347
3.6 1279
3.66 1296
3.72 1305
3.78 1210
3.84 1162
3.9 1139
3.96 1184
4.02 1096
4.08 1102
4.14 1062
4.2 1079
4.26 1064
4.32 992
4.38 1028
4.44 931
4.5 997
4.56 965
4.62 956
4.68 990
4.74 944
4.8 928
4.86 970
4.92 955
4.98 889
5.04 898
5.1 893
5.16 895
5.22 860
5.28 885
5.34 956
5.4 846
5.46 899
5.52 846
5.58 862
5.64 956
5.7 934
5.76 935
5.82 886
5.88 890
5.94 902
6 906
6.06 956
6.12 928
6.18 931
6.24 894
6.3 919
6.36 984
6.42 987
6.48 983
6.54 1005
6.6 1026
6.66 960
6.72 957
6.78 1017
6.84 891
6.9 917
6.96 879
7.02 940
7.08 935
7.14 905
7.2 989
7.26 966
7.32 910
7.38 957
7.44 974
7.5 998
7.56 1001
7.62 1074
7.68 1086
7.74 1151
7.8 1205
7.86 1335
7.92 1381
7.98 1325
8.04 1292
8.1 1345
8.16 1279
8.22 1355
8.28 1469
8.34 1608
8.4 1659
8.46 1800
8.52 1952
8.58 2116
8.64 2384
8.7 2830
8.76 3240
8.82 4046
8.88 4877
8.94 5765
9 6307
9.06 5827
9.12 4924
9.18 4331
9.24 3897
9.3 3729
9.36 3248
9.42 2864
9.48 2670
9.54 2617
9.6 2689
9.66 2962
9.72 3423
9.78 4148
9.84 5062
9.9 6598
9.96 8013
10.02 6247
10.08 3429
10.14 2285
10.2 1831
10.26 1635
10.32 1597
10.38 1455
10.44 1482
10.5 1491
10.56 1456
10.62 1494
10.68 1524
10.74 1545
10.8 1518
10.86 1528
10.92 1501
10.98 1508
11.04 1406
11.1 1311
11.16 1144
11.22 1143
11.28 1047
11.34 989
11.4 999
11.46 972
11.52 938
11.58 869
11.64 898
11.7 891
11.76 876
11.82 875
11.88 902
11.94 899
12 845
12.06 877
12.12 954
12.18 945
12.24 989
12.3 1052
12.36 1123
12.42 1217
12.48 1428
12.54 1657
12.6 2066
12.66 2512
12.72 2818
12.78 2204
12.84 1448
12.9 1166
12.96 1141
13.02 1001
13.08 994
13.14 964
13.2 929
13.26 936
13.32 968
13.38 937
13.44 932
13.5 965
13.56 919
13.62 910
13.68 928
13.74 915
13.8 807
13.86 859
13.92 816
13.98 857
14.04 892
14.1 864
14.16 913
14.22 962
14.28 969
14.34 956
14.4 1029
14.46 1049
14.52 995
14.58 970
14.64 865
14.7 873
14.76 816
14.82 775
14.88 791
14.94 840
15 755
15.06 802
15.12 824
15.18 840
15.24 847
15.3 795
15.36 789
15.42 797
15.48 782
15.54 802
15.6 784
15.66 834
15.72 772
15.78 771
15.84 820
15.9 818
15.96 771
16.02 785
16.08 797
16.14 832
16.2 792
16.26 786
16.32 788
16.38 773
16.44 816
16.5 833
16.56 839
16.62 828
16.68 858
16.74 828
16.8 910
16.86 881
16.92 1014
16.98 1121
17.04 1100
17.1 924
17.16 849
17.22 826
17.28 843
17.34 846
17.4 857
17.46 849
17.52 880
17.58 920
17.64 891
17.7 912
17.76 971
17.82 995
17.88 1003
17.94 1004
18 1006
18.06 1064
18.12 1029
18.18 1075
18.24 1075
18.3 1080
18.36 1081
18.42 1020
18.48 1050
18.54 1060
18.6 1082
18.66 1059
18.72 931
18.78 936
18.84 952
18.9 939
18.96 939
19.02 1014
19.08 981
19.14 965
19.2 1008
19.26 1011
19.32 999
19.38 1018
19.44 1068
19.5 1064
19.56 1049
19.62 1097
19.68 1098
19.74 1235
19.8 1396
19.86 1548
19.92 1874
19.98 1971
20 1871