File: xrd-UiO-67/pxrddata/37-11.ASC
3 2400
3.06 1973
3.12 1742
3.18 1636
3.24 1639
3.3 1588
3.36 1518
3.42 1400
3.48 1472
3.54 1406
3.6 1370
3.66 1370
3.72 1338
3.78 1253
3.84 1340
3.9 1298
3.96 1324
4.02 1290
4.08 1199
4.14 1184
4.2 1175
4.26 1241
4.32 1150
4.38 1160
4.44 1106
4.5 1208
4.56 1118
4.62 1117
4.68 1081
4.74 1128
4.8 1118
4.86 1141
4.92 1131
4.98 1150
5.04 1018
5.1 1072
5.16 1112
5.22 1092
5.28 1205
5.34 1266
5.4 1597
5.46 1250
5.52 1166
5.58 1139
5.64 1058
5.7 1216
5.76 1175
5.82 974
5.88 819
5.94 851
6 828
6.06 791
6.12 774
6.18 800
6.24 706
6.3 735
6.36 737
6.42 755
6.48 695
6.54 738
6.6 706
6.66 698
6.72 736
6.78 676
6.84 653
6.9 687
6.96 633
7.02 651
7.08 598
7.14 622
7.2 673
7.26 636
7.32 626
7.38 638
7.44 622
7.5 629
7.56 635
7.62 675
7.68 630
7.74 601
7.8 601
7.86 628
7.92 576
7.98 594
8.04 576
8.1 662
8.16 600
8.22 562
8.28 646
8.34 634
8.4 613
8.46 596
8.52 598
8.58 569
8.64 566
8.7 621
8.76 636
8.82 580
8.88 578
8.94 625
9 599
9.06 629
9.12 625
9.18 637
9.24 697
9.3 886
9.36 685
9.42 573
9.48 557
9.54 615
9.6 600
9.66 595
9.72 573
9.78 645
9.84 549
9.9 600
9.96 581
10.02 565
10.08 558
10.14 612
10.2 595
10.26 628
10.32 584
10.38 578
10.44 588
10.5 576
10.56 590
10.62 593
10.68 607
10.74 660
10.8 625
10.86 601
10.92 641
10.98 618
11.04 544
11.1 616
11.16 582
11.22 568
11.28 590
11.34 539
11.4 614
11.46 587
11.52 568
11.58 555
11.64 525
11.7 538
11.76 580
11.82 564
11.88 546
11.94 554
12 567
12.06 596
12.12 611
12.18 557
12.24 558
12.3 582
12.36 593
12.42 583
12.48 566
12.54 559
12.6 563
12.66 546
12.72 548
12.78 595
12.84 568
12.9 603
12.96 549
13.02 585
13.08 581
13.14 563
13.2 608
13.26 623
13.32 589
13.38 577
13.44 612
13.5 568
13.56 600
13.62 589
13.68 565
13.74 622
13.8 604
13.86 582
13.92 613
13.98 664
14.04 615
14.1 583
14.16 638
14.22 633
14.28 645
14.34 610
14.4 573
14.46 665
14.52 617
14.58 597
14.64 651
14.7 678
14.76 653
14.82 673
14.88 664
14.94 657
15 686
15.06 689
15.12 707
15.18 652
15.24 696
15.3 683
15.36 701
15.42 656
15.48 699
15.54 681
15.6 765
15.66 678
15.72 692
15.78 683
15.84 678
15.9 719
15.96 739
16.02 713
16.08 776
16.14 686
16.2 733
16.26 757
16.32 743
16.38 799
16.44 792
16.5 797
16.56 813
16.62 807
16.68 793
16.74 817
16.8 864
16.86 1003
16.92 1038
16.98 1967
17.04 1248
17.1 839
17.16 835
17.22 892
17.28 843
17.34 861
17.4 859
17.46 897
17.52 882
17.58 887
17.64 939
17.7 924
17.76 914
17.82 921
17.88 900
17.94 963
18 900
18.06 919
18.12 962
18.18 982
18.24 949
18.3 996
18.36 954
18.42 972
18.48 975
18.54 974
18.6 1016
18.66 1026
18.72 1026
18.78 1053
18.84 1046
18.9 1049
18.96 1045
19.02 1076
19.08 1083
19.14 1055
19.2 1067
19.26 1085
19.32 1092
19.38 1188
19.44 1134
19.5 1158
19.56 1156
19.62 1171
19.68 1109
19.74 1194
19.8 1136
19.86 1152
19.92 1203
19.98 1241
20 1175