File: xrd-UiO-67/pxrddata/37-16.ASC
3 1961
3.06 1642
3.12 1509
3.18 1397
3.24 1290
3.3 1279
3.36 1247
3.42 1252
3.48 1175
3.54 1108
3.6 1065
3.66 983
3.72 1028
3.78 932
3.84 994
3.9 960
3.96 936
4.02 930
4.08 853
4.14 808
4.2 873
4.26 760
4.32 702
4.38 750
4.44 741
4.5 745
4.56 712
4.62 684
4.68 717
4.74 648
4.8 678
4.86 714
4.92 576
4.98 572
5.04 626
5.1 587
5.16 630
5.22 587
5.28 600
5.34 595
5.4 601
5.46 577
5.52 575
5.58 627
5.64 617
5.7 591
5.76 598
5.82 575
5.88 544
5.94 554
6 574
6.06 574
6.12 530
6.18 560
6.24 545
6.3 570
6.36 542
6.42 551
6.48 576
6.54 506
6.6 536
6.66 523
6.72 535
6.78 514
6.84 534
6.9 520
6.96 497
7.02 489
7.08 516
7.14 517
7.2 559
7.26 496
7.32 530
7.38 543
7.44 547
7.5 508
7.56 516
7.62 540
7.68 498
7.74 556
7.8 490
7.86 516
7.92 521
7.98 532
8.04 519
8.1 508
8.16 517
8.22 488
8.28 501
8.34 477
8.4 535
8.46 565
8.52 541
8.58 610
8.64 565
8.7 653
8.76 722
8.82 783
8.88 969
8.94 1284
9 1858
9.06 1887
9.12 1221
9.18 748
9.24 556
9.3 508
9.36 522
9.42 507
9.48 561
9.54 502
9.6 540
9.66 607
9.72 614
9.78 649
9.84 748
9.9 949
9.96 1250
10.02 1145
10.08 840
10.14 572
10.2 511
10.26 488
10.32 495
10.38 466
10.44 459
10.5 458
10.56 476
10.62 467
10.68 496
10.74 473
10.8 511
10.86 476
10.92 481
10.98 502
11.04 489
11.1 459
11.16 478
11.22 492
11.28 461
11.34 470
11.4 459
11.46 458
11.52 470
11.58 433
11.64 479
11.7 440
11.76 468
11.82 461
11.88 451
11.94 454
12 486
12.06 447
12.12 436
12.18 456
12.24 444
12.3 470
12.36 500
12.42 483
12.48 477
12.54 516
12.6 530
12.66 567
12.72 679
12.78 628
12.84 578
12.9 492
12.96 528
13.02 513
13.08 503
13.14 513
13.2 556
13.26 580
13.32 666
13.38 788
13.44 902
13.5 817
13.56 601
13.62 563
13.68 495
13.74 515
13.8 464
13.86 508
13.92 511
13.98 475
14.04 504
14.1 497
14.16 458
14.22 510
14.28 507
14.34 520
14.4 485
14.46 526
14.52 511
14.58 517
14.64 562
14.7 521
14.76 493
14.82 525
14.88 491
14.94 524
15 515
15.06 529
15.12 568
15.18 532
15.24 511
15.3 524
15.36 553
15.42 548
15.48 531
15.54 568
15.6 566
15.66 563
15.72 555
15.78 563
15.84 575
15.9 529
15.96 581
16.02 575
16.08 576
16.14 594
16.2 581
16.26 571
16.32 558
16.38 597
16.44 594
16.5 589
16.56 611
16.62 629
16.68 598
16.74 631
16.8 712
16.86 723
16.92 924
16.98 1176
17.04 1169
17.1 925
17.16 766
17.22 689
17.28 678
17.34 660
17.4 640
17.46 656
17.52 652
17.58 685
17.64 694
17.7 702
17.76 665
17.82 694
17.88 733
17.94 757
18 757
18.06 697
18.12 697
18.18 710
18.24 732
18.3 734
18.36 713
18.42 754
18.48 793
18.54 824
18.6 774
18.66 762
18.72 780
18.78 774
18.84 747
18.9 763
18.96 753
19.02 786
19.08 779
19.14 821
19.2 775
19.26 787
19.32 811
19.38 791
19.44 810
19.5 817
19.56 832
19.62 890
19.68 793
19.74 853
19.8 900
19.86 959
19.92 1052
19.98 1071
20 1118