File: xrd-UiO-67/pxrddata/37-2.ASC
3 3146
3.06 2642
3.12 2453
3.18 2295
3.24 2273
3.3 2198
3.36 2137
3.42 2195
3.48 2110
3.54 2075
3.6 2066
3.66 2007
3.72 1997
3.78 1834
3.84 1874
3.9 1807
3.96 1792
4.02 1812
4.08 1747
4.14 1737
4.2 1804
4.26 1725
4.32 1663
4.38 1720
4.44 1617
4.5 1620
4.56 1617
4.62 1629
4.68 1591
4.74 1523
4.8 1529
4.86 1624
4.92 1576
4.98 1579
5.04 1555
5.1 1584
5.16 1612
5.22 1674
5.28 1766
5.34 2062
5.4 2611
5.46 1759
5.52 1431
5.58 1276
5.64 1213
5.7 1219
5.76 1117
5.82 1087
5.88 1018
5.94 1050
6 995
6.06 930
6.12 986
6.18 977
6.24 926
6.3 878
6.36 873
6.42 845
6.48 888
6.54 779
6.6 839
6.66 836
6.72 815
6.78 752
6.84 760
6.9 734
6.96 799
7.02 730
7.08 747
7.14 727
7.2 720
7.26 741
7.32 755
7.38 744
7.44 740
7.5 724
7.56 721
7.62 751
7.68 655
7.74 695
7.8 609
7.86 671
7.92 719
7.98 662
8.04 637
8.1 662
8.16 700
8.22 690
8.28 718
8.34 665
8.4 670
8.46 642
8.52 666
8.58 671
8.64 635
8.7 670
8.76 615
8.82 650
8.88 639
8.94 664
9 664
9.06 679
9.12 725
9.18 730
9.24 797
9.3 957
9.36 878
9.42 709
9.48 663
9.54 647
9.6 607
9.66 663
9.72 647
9.78 626
9.84 559
9.9 605
9.96 595
10.02 619
10.08 597
10.14 651
10.2 628
10.26 572
10.32 582
10.38 594
10.44 589
10.5 631
10.56 635
10.62 665
10.68 686
10.74 756
10.8 699
10.86 673
10.92 583
10.98 604
11.04 603
11.1 546
11.16 590
11.22 593
11.28 542
11.34 535
11.4 559
11.46 558
11.52 562
11.58 564
11.64 559
11.7 587
11.76 567
11.82 577
11.88 587
11.94 575
12 563
12.06 567
12.12 584
12.18 544
12.24 599
12.3 578
12.36 571
12.42 601
12.48 612
12.54 597
12.6 535
12.66 567
12.72 563
12.78 591
12.84 545
12.9 604
12.96 588
13.02 573
13.08 574
13.14 562
13.2 573
13.26 549
13.32 593
13.38 556
13.44 596
13.5 571
13.56 613
13.62 554
13.68 591
13.74 605
13.8 610
13.86 608
13.92 634
13.98 595
14.04 635
14.1 629
14.16 597
14.22 626
14.28 616
14.34 629
14.4 624
14.46 606
14.52 622
14.58 608
14.64 587
14.7 643
14.76 627
14.82 638
14.88 610
14.94 615
15 651
15.06 611
15.12 639
15.18 593
15.24 672
15.3 673
15.36 633
15.42 659
15.48 645
15.54 653
15.6 667
15.66 680
15.72 664
15.78 702
15.84 681
15.9 674
15.96 696
16.02 676
16.08 713
16.14 734
16.2 754
16.26 689
16.32 749
16.38 712
16.44 700
16.5 734
16.56 730
16.62 684
16.68 725
16.74 775
16.8 793
16.86 873
16.92 916
16.98 2163
17.04 1695
17.1 874
17.16 814
17.22 790
17.28 876
17.34 770
17.4 769
17.46 844
17.52 778
17.58 859
17.64 815
17.7 824
17.76 861
17.82 835
17.88 811
17.94 846
18 827
18.06 832
18.12 810
18.18 816
18.24 850
18.3 802
18.36 870
18.42 829
18.48 887
18.54 828
18.6 882
18.66 951
18.72 980
18.78 894
18.84 929
18.9 903
18.96 902
19.02 1009
19.08 943
19.14 935
19.2 959
19.26 1002
19.32 977
19.38 1026
19.44 1072
19.5 1038
19.56 967
19.62 991
19.68 1019
19.74 1021
19.8 978
19.86 1009
19.92 1048
19.98 968
20 1003