File: xrd-UiO-67/pxrddata/37-20-1.ASC
3 2384
3.06 2075
3.12 1854
3.18 1719
3.24 1646
3.3 1709
3.36 1661
3.42 1549
3.48 1614
3.54 1563
3.6 1597
3.66 1526
3.72 1474
3.78 1540
3.84 1538
3.9 1561
3.96 1589
4.02 1511
4.08 1547
4.14 1545
4.2 1573
4.26 1643
4.32 1549
4.38 1517
4.44 1581
4.5 1485
4.56 1614
4.62 1639
4.68 1625
4.74 1581
4.8 1648
4.86 1663
4.92 1630
4.98 1662
5.04 1654
5.1 1664
5.16 1666
5.22 1723
5.28 1790
5.34 1916
5.4 2057
5.46 2315
5.52 1900
5.58 1568
5.64 1471
5.7 1423
5.76 1378
5.82 1316
5.88 1255
5.94 1315
6 1226
6.06 1235
6.12 1202
6.18 1216
6.24 1205
6.3 1222
6.36 1190
6.42 1306
6.48 1440
6.54 1407
6.6 1285
6.66 1053
6.72 947
6.78 843
6.84 854
6.9 794
6.96 831
7.02 732
7.08 778
7.14 757
7.2 732
7.26 759
7.32 709
7.38 700
7.44 748
7.5 691
7.56 677
7.62 662
7.68 660
7.74 665
7.8 666
7.86 626
7.92 629
7.98 689
8.04 671
8.1 635
8.16 679
8.22 673
8.28 643
8.34 634
8.4 626
8.46 631
8.52 657
8.58 636
8.64 617
8.7 646
8.76 642
8.82 621
8.88 652
8.94 637
9 678
9.06 708
9.12 727
9.18 702
9.24 823
9.3 920
9.36 1116
9.42 1104
9.48 718
9.54 611
9.6 585
9.66 597
9.72 589
9.78 653
9.84 597
9.9 611
9.96 607
10.02 586
10.08 589
10.14 561
10.2 589
10.26 590
10.32 567
10.38 562
10.44 577
10.5 577
10.56 594
10.62 582
10.68 598
10.74 650
10.8 632
10.86 689
10.92 600
10.98 556
11.04 539
11.1 546
11.16 528
11.22 587
11.28 596
11.34 567
11.4 627
11.46 621
11.52 532
11.58 531
11.64 553
11.7 530
11.76 524
11.82 496
11.88 538
11.94 515
12 547
12.06 572
12.12 609
12.18 598
12.24 543
12.3 571
12.36 502
12.42 544
12.48 492
12.54 505
12.6 493
12.66 484
12.72 510
12.78 527
12.84 520
12.9 525
12.96 518
13.02 493
13.08 513
13.14 474
13.2 527
13.26 540
13.32 550
13.38 513
13.44 478
13.5 479
13.56 455
13.62 516
13.68 509
13.74 491
13.8 521
13.86 482
13.92 491
13.98 503
14.04 490
14.1 523
14.16 499
14.22 455
14.28 479
14.34 489
14.4 547
14.46 528
14.52 486
14.58 499
14.64 534
14.7 517
14.76 478
14.82 490
14.88 506
14.94 502
15 537
15.06 468
15.12 497
15.18 488
15.24 540
15.3 540
15.36 529
15.42 537
15.48 512
15.54 516
15.6 529
15.66 518
15.72 528
15.78 549
15.84 488
15.9 582
15.96 516
16.02 548
16.08 550
16.14 502
16.2 529
16.26 575
16.32 532
16.38 558
16.44 498
16.5 573
16.56 554
16.62 659
16.68 700
16.74 725
16.8 925
16.86 1214
16.92 2090
16.98 2333
17.04 2368
17.1 1256
17.16 730
17.22 593
17.28 618
17.34 568
17.4 543
17.46 593
17.52 559
17.58 576
17.64 619
17.7 633
17.76 577
17.82 583
17.88 593
17.94 552
18 616
18.06 555
18.12 590
18.18 630
18.24 612
18.3 593
18.36 611
18.42 589
18.48 656
18.54 660
18.6 677
18.66 611
18.72 628
18.78 612
18.84 657
18.9 658
18.96 615
19.02 647
19.08 625
19.14 598
19.2 677
19.26 656
19.32 731
19.38 672
19.44 699
19.5 730
19.56 735
19.62 714
19.68 695
19.74 705
19.8 731
19.86 674
19.92 658
19.98 709
20 659