File: xrd-UiO-67/pxrddata/37-23.ASC
3 3031
3.06 2689
3.12 2464
3.18 2260
3.24 2171
3.3 2079
3.36 2055
3.42 1981
3.48 1909
3.54 1947
3.6 1848
3.66 1752
3.72 1664
3.78 1616
3.84 1667
3.9 1596
3.96 1592
4.02 1598
4.08 1509
4.14 1538
4.2 1518
4.26 1442
4.32 1463
4.38 1462
4.44 1386
4.5 1370
4.56 1363
4.62 1342
4.68 1296
4.74 1273
4.8 1221
4.86 1148
4.92 1213
4.98 1198
5.04 1174
5.1 1189
5.16 1166
5.22 1114
5.28 1091
5.34 1074
5.4 1048
5.46 1046
5.52 1021
5.58 1000
5.64 944
5.7 956
5.76 947
5.82 955
5.88 866
5.94 868
6 892
6.06 840
6.12 834
6.18 806
6.24 823
6.3 816
6.36 762
6.42 762
6.48 717
6.54 708
6.6 730
6.66 778
6.72 699
6.78 776
6.84 726
6.9 706
6.96 697
7.02 710
7.08 648
7.14 678
7.2 671
7.26 649
7.32 667
7.38 655
7.44 666
7.5 642
7.56 666
7.62 695
7.68 634
7.74 652
7.8 663
7.86 651
7.92 647
7.98 610
8.04 658
8.1 620
8.16 608
8.22 600
8.28 641
8.34 600
8.4 605
8.46 599
8.52 566
8.58 599
8.64 596
8.7 639
8.76 614
8.82 572
8.88 603
8.94 608
9 614
9.06 553
9.12 577
9.18 591
9.24 606
9.3 624
9.36 599
9.42 610
9.48 594
9.54 563
9.6 564
9.66 575
9.72 579
9.78 603
9.84 593
9.9 606
9.96 581
10.02 587
10.08 562
10.14 561
10.2 570
10.26 504
10.32 592
10.38 551
10.44 569
10.5 548
10.56 539
10.62 527
10.68 597
10.74 566
10.8 581
10.86 573
10.92 529
10.98 528
11.04 554
11.1 535
11.16 536
11.22 558
11.28 567
11.34 590
11.4 564
11.46 530
11.52 562
11.58 560
11.64 540
11.7 550
11.76 527
11.82 582
11.88 565
11.94 622
12 576
12.06 521
12.12 558
12.18 541
12.24 560
12.3 554
12.36 584
12.42 552
12.48 572
12.54 553
12.6 626
12.66 556
12.72 551
12.78 549
12.84 579
12.9 537
12.96 578
13.02 575
13.08 574
13.14 621
13.2 646
13.26 722
13.32 562
13.38 545
13.44 562
13.5 601
13.56 604
13.62 586
13.68 551
13.74 560
13.8 593
13.86 606
13.92 571
13.98 630
14.04 605
14.1 641
14.16 589
14.22 555
14.28 620
14.34 639
14.4 631
14.46 651
14.52 645
14.58 630
14.64 605
14.7 667
14.76 578
14.82 642
14.88 623
14.94 645
15 631
15.06 648
15.12 656
15.18 700
15.24 676
15.3 704
15.36 747
15.42 634
15.48 683
15.54 720
15.6 676
15.66 714
15.72 658
15.78 738
15.84 685
15.9 701
15.96 671
16.02 693
16.08 744
16.14 735
16.2 698
16.26 774
16.32 735
16.38 835
16.44 822
16.5 802
16.56 842
16.62 799
16.68 874
16.74 1298
16.8 1737
16.86 1828
16.92 3312
16.98 13143
17.04 6204
17.1 1240
17.16 1008
17.22 930
17.28 870
17.34 906
17.4 882
17.46 904
17.52 910
17.58 951
17.64 887
17.7 961
17.76 940
17.82 903
17.88 929
17.94 953
18 984
18.06 930
18.12 948
18.18 936
18.24 936
18.3 996
18.36 1005
18.42 1035
18.48 1011
18.54 998
18.6 1032
18.66 1020
18.72 1054
18.78 1041
18.84 1033
18.9 1048
18.96 1070
19.02 1082
19.08 1093
19.14 1111
19.2 1071
19.26 1107
19.32 1029
19.38 1119
19.44 1114
19.5 1071
19.56 1127
19.62 1082
19.68 1082
19.74 1142
19.8 1127
19.86 1152
19.92 1156
19.98 1120
20 1098