File: xrd-UiO-67/pxrddata/37-24.ASC
3 2194
3.06 1799
3.12 1626
3.18 1538
3.24 1460
3.3 1482
3.36 1337
3.42 1439
3.48 1330
3.54 1320
3.6 1308
3.66 1275
3.72 1233
3.78 1303
3.84 1173
3.9 1220
3.96 1161
4.02 1204
4.08 1143
4.14 1148
4.2 1167
4.26 1156
4.32 1081
4.38 1144
4.44 1129
4.5 1125
4.56 1066
4.62 1179
4.68 1088
4.74 1130
4.8 1094
4.86 1079
4.92 1059
4.98 1088
5.04 1066
5.1 1067
5.16 1038
5.22 995
5.28 976
5.34 1013
5.4 1001
5.46 1047
5.52 1041
5.58 942
5.64 876
5.7 879
5.76 904
5.82 827
5.88 871
5.94 796
6 784
6.06 762
6.12 718
6.18 756
6.24 689
6.3 722
6.36 738
6.42 708
6.48 719
6.54 693
6.6 713
6.66 707
6.72 716
6.78 699
6.84 626
6.9 686
6.96 645
7.02 674
7.08 668
7.14 645
7.2 621
7.26 628
7.32 628
7.38 653
7.44 613
7.5 665
7.56 586
7.62 605
7.68 570
7.74 620
7.8 606
7.86 660
7.92 609
7.98 616
8.04 636
8.1 645
8.16 589
8.22 594
8.28 665
8.34 597
8.4 621
8.46 608
8.52 589
8.58 617
8.64 596
8.7 575
8.76 592
8.82 598
8.88 582
8.94 605
9 564
9.06 616
9.12 569
9.18 586
9.24 600
9.3 596
9.36 626
9.42 645
9.48 585
9.54 586
9.6 570
9.66 572
9.72 598
9.78 609
9.84 582
9.9 548
9.96 573
10.02 596
10.08 569
10.14 580
10.2 574
10.26 546
10.32 544
10.38 609
10.44 586
10.5 603
10.56 541
10.62 564
10.68 551
10.74 571
10.8 564
10.86 635
10.92 571
10.98 553
11.04 579
11.1 536
11.16 624
11.22 595
11.28 586
11.34 551
11.4 543
11.46 570
11.52 597
11.58 564
11.64 595
11.7 555
11.76 546
11.82 548
11.88 584
11.94 530
12 561
12.06 559
12.12 582
12.18 589
12.24 587
12.3 584
12.36 555
12.42 577
12.48 548
12.54 572
12.6 601
12.66 570
12.72 611
12.78 586
12.84 587
12.9 583
12.96 578
13.02 605
13.08 637
13.14 575
13.2 581
13.26 592
13.32 592
13.38 610
13.44 593
13.5 613
13.56 557
13.62 620
13.68 589
13.74 577
13.8 636
13.86 611
13.92 635
13.98 651
14.04 623
14.1 583
14.16 633
14.22 629
14.28 637
14.34 629
14.4 581
14.46 644
14.52 638
14.58 619
14.64 655
14.7 677
14.76 603
14.82 683
14.88 636
14.94 621
15 626
15.06 684
15.12 703
15.18 694
15.24 711
15.3 698
15.36 666
15.42 727
15.48 726
15.54 681
15.6 725
15.66 735
15.72 720
15.78 727
15.84 753
15.9 728
15.96 763
16.02 760
16.08 764
16.14 742
16.2 765
16.26 777
16.32 722
16.38 737
16.44 820
16.5 821
16.56 797
16.62 823
16.68 841
16.74 875
16.8 984
16.86 1059
16.92 1314
16.98 2103
17.04 3065
17.1 2478
17.16 1464
17.22 942
17.28 902
17.34 960
17.4 991
17.46 922
17.52 882
17.58 967
17.64 970
17.7 916
17.76 950
17.82 961
17.88 1065
17.94 1024
18 1037
18.06 1010
18.12 990
18.18 1019
18.24 1040
18.3 974
18.36 1087
18.42 1126
18.48 1070
18.54 1059
18.6 1067
18.66 1098
18.72 1095
18.78 1112
18.84 1100
18.9 1122
18.96 1158
19.02 1126
19.08 1119
19.14 1180
19.2 1135
19.26 1175
19.32 1212
19.38 1186
19.44 1204
19.5 1176
19.56 1192
19.62 1253
19.68 1288
19.74 1239
19.8 1283
19.86 1206
19.92 1263
19.98 1307
20 1267