File: xrd-UiO-67/pxrddata/37-35.ASC
3 2403
3.06 2044
3.12 1844
3.18 1711
3.24 1701
3.3 1621
3.36 1579
3.42 1591
3.48 1518
3.54 1423
3.6 1391
3.66 1443
3.72 1323
3.78 1382
3.84 1261
3.9 1315
3.96 1264
4.02 1236
4.08 1184
4.14 1182
4.2 1206
4.26 1126
4.32 1122
4.38 1081
4.44 1076
4.5 1037
4.56 1094
4.62 1085
4.68 1037
4.74 1020
4.8 970
4.86 920
4.92 1003
4.98 929
5.04 986
5.1 952
5.16 877
5.22 909
5.28 865
5.34 894
5.4 967
5.46 974
5.52 971
5.58 883
5.64 872
5.7 776
5.76 827
5.82 823
5.88 808
5.94 763
6 713
6.06 715
6.12 740
6.18 702
6.24 727
6.3 732
6.36 693
6.42 694
6.48 665
6.54 676
6.6 653
6.66 650
6.72 665
6.78 637
6.84 665
6.9 613
6.96 638
7.02 626
7.08 622
7.14 607
7.2 624
7.26 598
7.32 671
7.38 636
7.44 621
7.5 592
7.56 536
7.62 637
7.68 578
7.74 604
7.8 595
7.86 548
7.92 580
7.98 579
8.04 530
8.1 542
8.16 588
8.22 588
8.28 557
8.34 555
8.4 579
8.46 541
8.52 552
8.58 566
8.64 573
8.7 590
8.76 551
8.82 579
8.88 555
8.94 561
9 550
9.06 574
9.12 538
9.18 560
9.24 572
9.3 566
9.36 588
9.42 596
9.48 591
9.54 519
9.6 555
9.66 517
9.72 525
9.78 570
9.84 491
9.9 543
9.96 529
10.02 539
10.08 534
10.14 524
10.2 543
10.26 550
10.32 507
10.38 533
10.44 513
10.5 490
10.56 517
10.62 530
10.68 509
10.74 512
10.8 545
10.86 496
10.92 497
10.98 479
11.04 517
11.1 500
11.16 510
11.22 481
11.28 475
11.34 497
11.4 484
11.46 552
11.52 472
11.58 490
11.64 488
11.7 484
11.76 460
11.82 470
11.88 479
11.94 491
12 527
12.06 476
12.12 541
12.18 511
12.24 484
12.3 483
12.36 492
12.42 484
12.48 474
12.54 509
12.6 516
12.66 510
12.72 477
12.78 540
12.84 509
12.9 496
12.96 503
13.02 539
13.08 531
13.14 517
13.2 556
13.26 503
13.32 509
13.38 514
13.44 517
13.5 500
13.56 536
13.62 493
13.68 506
13.74 538
13.8 544
13.86 525
13.92 539
13.98 537
14.04 534
14.1 563
14.16 519
14.22 572
14.28 566
14.34 598
14.4 566
14.46 565
14.52 538
14.58 587
14.64 579
14.7 614
14.76 583
14.82 585
14.88 593
14.94 537
15 578
15.06 597
15.12 599
15.18 597
15.24 604
15.3 654
15.36 602
15.42 652
15.48 612
15.54 620
15.6 593
15.66 672
15.72 650
15.78 624
15.84 634
15.9 644
15.96 680
16.02 682
16.08 658
16.14 652
16.2 633
16.26 646
16.32 736
16.38 675
16.44 696
16.5 722
16.56 694
16.62 686
16.68 700
16.74 700
16.8 723
16.86 787
16.92 794
16.98 981
17.04 1292
17.1 1362
17.16 966
17.22 766
17.28 720
17.34 790
17.4 739
17.46 710
17.52 752
17.58 798
17.64 759
17.7 848
17.76 803
17.82 769
17.88 807
17.94 821
18 828
18.06 832
18.12 825
18.18 865
18.24 910
18.3 787
18.36 803
18.42 874
18.48 838
18.54 901
18.6 890
18.66 980
18.72 990
18.78 938
18.84 931
18.9 894
18.96 939
19.02 896
19.08 949
19.14 949
19.2 951
19.26 995
19.32 945
19.38 975
19.44 984
19.5 957
19.56 1041
19.62 1048
19.68 1004
19.74 1065
19.8 1043
19.86 1053
19.92 1047
19.98 1036
20 1111