File: xrd-UiO-67/pxrddata/37-31.ASC
3 2668
3.06 2224
3.12 2006
3.18 1890
3.24 1824
3.3 1681
3.36 1724
3.42 1632
3.48 1615
3.54 1571
3.6 1510
3.66 1442
3.72 1400
3.78 1377
3.84 1432
3.9 1372
3.96 1341
4.02 1313
4.08 1288
4.14 1257
4.2 1229
4.26 1202
4.32 1164
4.38 1173
4.44 1145
4.5 1117
4.56 1060
4.62 1087
4.68 1044
4.74 1062
4.8 1072
4.86 1083
4.92 1035
4.98 1030
5.04 966
5.1 1055
5.16 1028
5.22 1145
5.28 1130
5.34 1172
5.4 1386
5.46 1030
5.52 1036
5.58 982
5.64 993
5.7 989
5.76 1034
5.82 852
5.88 836
5.94 772
6 759
6.06 792
6.12 735
6.18 707
6.24 739
6.3 720
6.36 745
6.42 656
6.48 702
6.54 736
6.6 697
6.66 696
6.72 694
6.78 625
6.84 677
6.9 698
6.96 663
7.02 665
7.08 681
7.14 659
7.2 587
7.26 638
7.32 629
7.38 699
7.44 661
7.5 650
7.56 633
7.62 646
7.68 649
7.74 606
7.8 626
7.86 640
7.92 591
7.98 615
8.04 629
8.1 619
8.16 645
8.22 588
8.28 601
8.34 582
8.4 641
8.46 616
8.52 624
8.58 606
8.64 626
8.7 623
8.76 593
8.82 584
8.88 613
8.94 560
9 585
9.06 609
9.12 630
9.18 637
9.24 699
9.3 749
9.36 678
9.42 611
9.48 579
9.54 599
9.6 575
9.66 589
9.72 599
9.78 564
9.84 564
9.9 593
9.96 551
10.02 582
10.08 568
10.14 581
10.2 557
10.26 566
10.32 528
10.38 596
10.44 558
10.5 606
10.56 584
10.62 580
10.68 615
10.74 643
10.8 626
10.86 641
10.92 606
10.98 568
11.04 568
11.1 541
11.16 588
11.22 518
11.28 547
11.34 517
11.4 572
11.46 563
11.52 568
11.58 537
11.64 564
11.7 570
11.76 586
11.82 534
11.88 579
11.94 539
12 558
12.06 583
12.12 551
12.18 575
12.24 574
12.3 571
12.36 593
12.42 575
12.48 570
12.54 551
12.6 559
12.66 562
12.72 561
12.78 603
12.84 580
12.9 612
12.96 597
13.02 542
13.08 564
13.14 564
13.2 605
13.26 601
13.32 628
13.38 608
13.44 570
13.5 602
13.56 592
13.62 639
13.68 588
13.74 615
13.8 590
13.86 621
13.92 608
13.98 596
14.04 602
14.1 606
14.16 618
14.22 648
14.28 613
14.34 631
14.4 653
14.46 670
14.52 665
14.58 644
14.64 669
14.7 687
14.76 672
14.82 638
14.88 667
14.94 693
15 674
15.06 655
15.12 668
15.18 708
15.24 695
15.3 695
15.36 686
15.42 672
15.48 717
15.54 736
15.6 712
15.66 710
15.72 699
15.78 706
15.84 737
15.9 764
15.96 735
16.02 744
16.08 712
16.14 772
16.2 741
16.26 804
16.32 818
16.38 792
16.44 776
16.5 816
16.56 794
16.62 808
16.68 791
16.74 876
16.8 886
16.86 904
16.92 1014
16.98 1292
17.04 930
17.1 817
17.16 868
17.22 826
17.28 894
17.34 899
17.4 933
17.46 876
17.52 925
17.58 926
17.64 902
17.7 870
17.76 955
17.82 974
17.88 959
17.94 967
18 971
18.06 979
18.12 982
18.18 1007
18.24 1000
18.3 982
18.36 1019
18.42 998
18.48 1045
18.54 1084
18.6 1100
18.66 1099
18.72 1120
18.78 1124
18.84 1056
18.9 1102
18.96 1151
19.02 1122
19.08 1149
19.14 1143
19.2 1126
19.26 1128
19.32 1137
19.38 1150
19.44 1200
19.5 1200
19.56 1218
19.62 1188
19.68 1192
19.74 1193
19.8 1210
19.86 1227
19.92 1187
19.98 1233
20 1196