File: xrd-UiO-67/pxrddata/37-34.ASC
3 2501
3.06 2088
3.12 1840
3.18 1735
3.24 1694
3.3 1618
3.36 1557
3.42 1453
3.48 1461
3.54 1420
3.6 1377
3.66 1292
3.72 1342
3.78 1292
3.84 1238
3.9 1186
3.96 1233
4.02 1129
4.08 1116
4.14 1042
4.2 1063
4.26 1015
4.32 1021
4.38 982
4.44 1048
4.5 950
4.56 898
4.62 947
4.68 909
4.74 927
4.8 894
4.86 887
4.92 868
4.98 812
5.04 885
5.1 872
5.16 840
5.22 847
5.28 811
5.34 800
5.4 770
5.46 803
5.52 789
5.58 744
5.64 716
5.7 737
5.76 769
5.82 736
5.88 709
5.94 754
6 668
6.06 711
6.12 666
6.18 714
6.24 680
6.3 685
6.36 658
6.42 654
6.48 620
6.54 685
6.6 689
6.66 653
6.72 652
6.78 657
6.84 648
6.9 635
6.96 594
7.02 640
7.08 612
7.14 635
7.2 592
7.26 631
7.32 611
7.38 586
7.44 626
7.5 584
7.56 642
7.62 630
7.68 608
7.74 582
7.8 669
7.86 627
7.92 613
7.98 611
8.04 581
8.1 631
8.16 586
8.22 587
8.28 636
8.34 594
8.4 581
8.46 597
8.52 565
8.58 572
8.64 578
8.7 565
8.76 586
8.82 552
8.88 564
8.94 553
9 558
9.06 513
9.12 567
9.18 533
9.24 565
9.3 550
9.36 567
9.42 578
9.48 572
9.54 566
9.6 511
9.66 550
9.72 559
9.78 591
9.84 575
9.9 552
9.96 535
10.02 530
10.08 524
10.14 532
10.2 521
10.26 545
10.32 536
10.38 524
10.44 562
10.5 514
10.56 525
10.62 539
10.68 534
10.74 526
10.8 565
10.86 563
10.92 518
10.98 548
11.04 581
11.1 549
11.16 544
11.22 540
11.28 535
11.34 561
11.4 497
11.46 516
11.52 506
11.58 567
11.64 504
11.7 541
11.76 516
11.82 517
11.88 550
11.94 570
12 515
12.06 546
12.12 575
12.18 590
12.24 564
12.3 518
12.36 535
12.42 571
12.48 565
12.54 532
12.6 537
12.66 544
12.72 523
12.78 541
12.84 563
12.9 543
12.96 556
13.02 572
13.08 574
13.14 573
13.2 545
13.26 575
13.32 546
13.38 572
13.44 560
13.5 586
13.56 612
13.62 573
13.68 549
13.74 570
13.8 609
13.86 528
13.92 558
13.98 586
14.04 623
14.1 588
14.16 574
14.22 630
14.28 583
14.34 592
14.4 634
14.46 617
14.52 618
14.58 571
14.64 565
14.7 602
14.76 621
14.82 650
14.88 657
14.94 691
15 645
15.06 655
15.12 696
15.18 671
15.24 659
15.3 673
15.36 646
15.42 687
15.48 677
15.54 669
15.6 666
15.66 693
15.72 655
15.78 702
15.84 756
15.9 659
15.96 699
16.02 703
16.08 677
16.14 731
16.2 651
16.26 732
16.32 750
16.38 706
16.44 666
16.5 720
16.56 751
16.62 755
16.68 709
16.74 748
16.8 761
16.86 941
16.92 946
16.98 1253
17.04 1386
17.1 992
17.16 792
17.22 840
17.28 858
17.34 844
17.4 815
17.46 838
17.52 841
17.58 842
17.64 903
17.7 860
17.76 848
17.82 908
17.88 823
17.94 915
18 893
18.06 898
18.12 878
18.18 859
18.24 942
18.3 855
18.36 931
18.42 936
18.48 977
18.54 912
18.6 951
18.66 946
18.72 968
18.78 976
18.84 981
18.9 959
18.96 1002
19.02 987
19.08 1067
19.14 1022
19.2 1033
19.26 1031
19.32 1058
19.38 1091
19.44 998
19.5 1049
19.56 1035
19.62 1114
19.68 1057
19.74 1119
19.8 1063
19.86 1145
19.92 1163
19.98 1066
20 1101