File: xrd-UiO-67/pxrddata/37-38.ASC
3 2387
3.06 1902
3.12 1692
3.18 1644
3.24 1565
3.3 1523
3.36 1414
3.42 1439
3.48 1358
3.54 1375
3.6 1286
3.66 1203
3.72 1223
3.78 1196
3.84 1127
3.9 1153
3.96 1113
4.02 1107
4.08 1135
4.14 1073
4.2 1050
4.26 1013
4.32 1012
4.38 1010
4.44 925
4.5 919
4.56 927
4.62 902
4.68 859
4.74 881
4.8 864
4.86 850
4.92 881
4.98 872
5.04 899
5.1 888
5.16 883
5.22 966
5.28 1001
5.34 1149
5.4 1235
5.46 1438
5.52 1579
5.58 1805
5.64 1326
5.7 1263
5.76 1290
5.82 1319
5.88 1345
5.94 1271
6 937
6.06 756
6.12 736
6.18 679
6.24 677
6.3 640
6.36 647
6.42 593
6.48 591
6.54 623
6.6 666
6.66 612
6.72 610
6.78 622
6.84 664
6.9 643
6.96 628
7.02 573
7.08 571
7.14 572
7.2 601
7.26 543
7.32 594
7.38 541
7.44 531
7.5 557
7.56 573
7.62 563
7.68 558
7.74 525
7.8 536
7.86 525
7.92 549
7.98 513
8.04 517
8.1 529
8.16 527
8.22 510
8.28 536
8.34 557
8.4 530
8.46 538
8.52 530
8.58 549
8.64 538
8.7 506
8.76 557
8.82 535
8.88 533
8.94 544
9 519
9.06 540
9.12 572
9.18 556
9.24 688
9.3 659
9.36 783
9.42 765
9.48 920
9.54 756
9.6 593
9.66 565
9.72 535
9.78 501
9.84 494
9.9 530
9.96 540
10.02 523
10.08 555
10.14 514
10.2 495
10.26 529
10.32 559
10.38 566
10.44 517
10.5 514
10.56 501
10.62 555
10.68 530
10.74 561
10.8 583
10.86 617
10.92 714
10.98 632
11.04 658
11.1 648
11.16 587
11.22 509
11.28 498
11.34 509
11.4 519
11.46 512
11.52 532
11.58 543
11.64 537
11.7 558
11.76 498
11.82 472
11.88 518
11.94 506
12 537
12.06 539
12.12 507
12.18 518
12.24 516
12.3 516
12.36 492
12.42 539
12.48 530
12.54 538
12.6 536
12.66 547
12.72 513
12.78 499
12.84 508
12.9 516
12.96 500
13.02 511
13.08 516
13.14 537
13.2 565
13.26 538
13.32 548
13.38 598
13.44 637
13.5 614
13.56 541
13.62 555
13.68 544
13.74 570
13.8 547
13.86 559
13.92 535
13.98 576
14.04 602
14.1 565
14.16 547
14.22 525
14.28 552
14.34 565
14.4 632
14.46 603
14.52 597
14.58 561
14.64 579
14.7 612
14.76 616
14.82 647
14.88 609
14.94 644
15 595
15.06 627
15.12 599
15.18 641
15.24 640
15.3 651
15.36 660
15.42 611
15.48 617
15.54 679
15.6 648
15.66 608
15.72 672
15.78 684
15.84 655
15.9 720
15.96 653
16.02 626
16.08 678
16.14 715
16.2 677
16.26 742
16.32 698
16.38 724
16.44 764
16.5 744
16.56 769
16.62 765
16.68 773
16.74 769
16.8 822
16.86 815
16.92 938
16.98 1192
17.04 1479
17.1 2079
17.16 3258
17.22 1845
17.28 902
17.34 897
17.4 885
17.46 855
17.52 860
17.58 969
17.64 867
17.7 932
17.76 873
17.82 905
17.88 938
17.94 925
18 921
18.06 969
18.12 968
18.18 961
18.24 997
18.3 948
18.36 1021
18.42 963
18.48 981
18.54 999
18.6 1063
18.66 1036
18.72 1023
18.78 1034
18.84 1072
18.9 1096
18.96 1094
19.02 1120
19.08 1066
19.14 1118
19.2 1105
19.26 1120
19.32 1188
19.38 1090
19.44 1188
19.5 1221
19.56 1245
19.62 1272
19.68 1210
19.74 1214
19.8 1248
19.86 1135
19.92 1209
19.98 1234
20 1246