File: xrd-UiO-67/pxrddata/37-30.ASC
3 3106
3.06 2589
3.12 2421
3.18 2322
3.24 2274
3.3 2194
3.36 2046
3.42 1945
3.48 1890
3.54 1808
3.6 1776
3.66 1724
3.72 1644
3.78 1598
3.84 1532
3.9 1569
3.96 1493
4.02 1411
4.08 1383
4.14 1384
4.2 1299
4.26 1268
4.32 1277
4.38 1192
4.44 1201
4.5 1213
4.56 1174
4.62 1154
4.68 1130
4.74 1107
4.8 1082
4.86 1033
4.92 1091
4.98 1062
5.04 967
5.1 977
5.16 928
5.22 990
5.28 902
5.34 907
5.4 932
5.46 911
5.52 869
5.58 828
5.64 864
5.7 834
5.76 823
5.82 836
5.88 765
5.94 848
6 773
6.06 760
6.12 736
6.18 734
6.24 770
6.3 723
6.36 684
6.42 720
6.48 664
6.54 717
6.6 744
6.66 715
6.72 680
6.78 648
6.84 688
6.9 668
6.96 720
7.02 664
7.08 693
7.14 647
7.2 664
7.26 678
7.32 601
7.38 658
7.44 683
7.5 653
7.56 664
7.62 662
7.68 652
7.74 588
7.8 645
7.86 648
7.92 613
7.98 634
8.04 612
8.1 573
8.16 592
8.22 603
8.28 620
8.34 542
8.4 629
8.46 587
8.52 613
8.58 577
8.64 649
8.7 625
8.76 619
8.82 588
8.88 579
8.94 631
9 631
9.06 587
9.12 600
9.18 598
9.24 588
9.3 611
9.36 588
9.42 609
9.48 580
9.54 632
9.6 565
9.66 557
9.72 597
9.78 573
9.84 548
9.9 529
9.96 575
10.02 562
10.08 576
10.14 511
10.2 542
10.26 622
10.32 545
10.38 552
10.44 538
10.5 520
10.56 523
10.62 546
10.68 544
10.74 552
10.8 528
10.86 547
10.92 504
10.98 527
11.04 523
11.1 532
11.16 497
11.22 535
11.28 495
11.34 545
11.4 495
11.46 521
11.52 558
11.58 494
11.64 471
11.7 561
11.76 499
11.82 528
11.88 527
11.94 506
12 479
12.06 484
12.12 517
12.18 539
12.24 534
12.3 560
12.36 532
12.42 515
12.48 506
12.54 515
12.6 535
12.66 555
12.72 504
12.78 535
12.84 546
12.9 522
12.96 546
13.02 544
13.08 560
13.14 510
13.2 560
13.26 551
13.32 541
13.38 561
13.44 555
13.5 547
13.56 519
13.62 583
13.68 538
13.74 534
13.8 540
13.86 569
13.92 547
13.98 567
14.04 548
14.1 550
14.16 526
14.22 593
14.28 614
14.34 571
14.4 590
14.46 582
14.52 604
14.58 576
14.64 527
14.7 618
14.76 573
14.82 612
14.88 588
14.94 574
15 564
15.06 559
15.12 595
15.18 624
15.24 584
15.3 622
15.36 591
15.42 600
15.48 640
15.54 573
15.6 581
15.66 613
15.72 658
15.78 630
15.84 651
15.9 635
15.96 642
16.02 618
16.08 591
16.14 621
16.2 644
16.26 683
16.32 622
16.38 683
16.44 691
16.5 681
16.56 710
16.62 723
16.68 672
16.74 754
16.8 802
16.86 904
16.92 1377
16.98 1407
17.04 987
17.1 773
17.16 744
17.22 758
17.28 749
17.34 709
17.4 733
17.46 775
17.52 775
17.58 761
17.64 733
17.7 744
17.76 748
17.82 762
17.88 707
17.94 756
18 789
18.06 783
18.12 821
18.18 815
18.24 796
18.3 772
18.36 769
18.42 851
18.48 836
18.54 812
18.6 788
18.66 877
18.72 856
18.78 841
18.84 841
18.9 806
18.96 851
19.02 858
19.08 952
19.14 842
19.2 909
19.26 941
19.32 905
19.38 892
19.44 940
19.5 893
19.56 976
19.62 943
19.68 929
19.74 945
19.8 953
19.86 994
19.92 946
19.98 964
20 964