File: xrd-UiO-67/pxrddata/37-37.ASC
3 2489
3.06 2154
3.12 1858
3.18 1691
3.24 1671
3.3 1641
3.36 1582
3.42 1555
3.48 1541
3.54 1446
3.6 1483
3.66 1432
3.72 1406
3.78 1378
3.84 1434
3.9 1399
3.96 1459
4.02 1500
4.08 1529
4.14 1448
4.2 1385
4.26 1303
4.32 1275
4.38 1254
4.44 1238
4.5 1232
4.56 1214
4.62 1218
4.68 1200
4.74 1216
4.8 1245
4.86 1239
4.92 1275
4.98 1317
5.04 1407
5.1 1512
5.16 1737
5.22 1875
5.28 2209
5.34 2657
5.4 3442
5.46 3899
5.52 2638
5.58 2338
5.64 2455
5.7 2757
5.76 3336
5.82 3224
5.88 1953
5.94 1211
6 957
6.06 931
6.12 842
6.18 862
6.24 832
6.3 850
6.36 778
6.42 831
6.48 804
6.54 787
6.6 869
6.66 813
6.72 904
6.78 890
6.84 884
6.9 715
6.96 724
7.02 736
7.08 670
7.14 641
7.2 651
7.26 692
7.32 651
7.38 663
7.44 633
7.5 676
7.56 603
7.62 649
7.68 644
7.74 647
7.8 639
7.86 665
7.92 692
7.98 697
8.04 670
8.1 677
8.16 598
8.22 672
8.28 650
8.34 651
8.4 648
8.46 626
8.52 687
8.58 636
8.64 617
8.7 634
8.76 624
8.82 674
8.88 685
8.94 684
9 677
9.06 766
9.12 795
9.18 855
9.24 1012
9.3 1250
9.36 1755
9.42 1179
9.48 788
9.54 669
9.6 666
9.66 631
9.72 657
9.78 619
9.84 650
9.9 645
9.96 657
10.02 675
10.08 710
10.14 756
10.2 838
10.26 749
10.32 689
10.38 624
10.44 622
10.5 621
10.56 625
10.62 725
10.68 789
10.74 916
10.8 1024
10.86 985
10.92 937
10.98 1056
11.04 907
11.1 681
11.16 659
11.22 650
11.28 656
11.34 654
11.4 669
11.46 686
11.52 745
11.58 697
11.64 647
11.7 638
11.76 576
11.82 625
11.88 645
11.94 586
12 623
12.06 659
12.12 597
12.18 699
12.24 615
12.3 666
12.36 650
12.42 665
12.48 570
12.54 617
12.6 594
12.66 626
12.72 610
12.78 651
12.84 605
12.9 641
12.96 608
13.02 573
13.08 630
13.14 663
13.2 615
13.26 586
13.32 656
13.38 671
13.44 648
13.5 665
13.56 661
13.62 642
13.68 654
13.74 659
13.8 618
13.86 623
13.92 666
13.98 636
14.04 696
14.1 683
14.16 683
14.22 654
14.28 748
14.34 704
14.4 736
14.46 748
14.52 691
14.58 714
14.64 724
14.7 717
14.76 722
14.82 790
14.88 701
14.94 675
15 740
15.06 773
15.12 705
15.18 776
15.24 795
15.3 725
15.36 756
15.42 733
15.48 724
15.54 715
15.6 750
15.66 757
15.72 783
15.78 733
15.84 776
15.9 769
15.96 801
16.02 841
16.08 772
16.14 821
16.2 837
16.26 868
16.32 840
16.38 864
16.44 848
16.5 878
16.56 836
16.62 838
16.68 890
16.74 908
16.8 913
16.86 910
16.92 967
16.98 1049
17.04 1152
17.1 968
17.16 956
17.22 922
17.28 939
17.34 935
17.4 932
17.46 1024
17.52 957
17.58 1005
17.64 956
17.7 986
17.76 988
17.82 1013
17.88 1026
17.94 1020
18 999
18.06 988
18.12 1015
18.18 1029
18.24 994
18.3 1051
18.36 1087
18.42 1106
18.48 1086
18.54 1086
18.6 1075
18.66 1168
18.72 1235
18.78 1191
18.84 1199
18.9 1197
18.96 1201
19.02 1224
19.08 1273
19.14 1243
19.2 1231
19.26 1181
19.32 1225
19.38 1288
19.44 1414
19.5 1417
19.56 1428
19.62 1354
19.68 1273
19.74 1334
19.8 1294
19.86 1299
19.92 1368
19.98 1276
20 1324