File: xrd-UiO-67/pxrddata/37-5.ASC
3 2483
3.06 1998
3.12 1802
3.18 1705
3.24 1700
3.3 1645
3.36 1590
3.42 1556
3.48 1497
3.54 1490
3.6 1412
3.66 1403
3.72 1332
3.78 1354
3.84 1305
3.9 1264
3.96 1284
4.02 1211
4.08 1188
4.14 1186
4.2 1168
4.26 1124
4.32 1100
4.38 1094
4.44 1070
4.5 1000
4.56 1017
4.62 1040
4.68 1016
4.74 1006
4.8 973
4.86 937
4.92 884
4.98 966
5.04 879
5.1 943
5.16 865
5.22 869
5.28 855
5.34 812
5.4 876
5.46 854
5.52 798
5.58 815
5.64 776
5.7 763
5.76 806
5.82 824
5.88 768
5.94 743
6 733
6.06 742
6.12 724
6.18 641
6.24 740
6.3 691
6.36 708
6.42 708
6.48 710
6.54 695
6.6 666
6.66 664
6.72 655
6.78 725
6.84 621
6.9 632
6.96 640
7.02 697
7.08 649
7.14 656
7.2 663
7.26 653
7.32 621
7.38 647
7.44 672
7.5 639
7.56 600
7.62 630
7.68 571
7.74 592
7.8 625
7.86 645
7.92 647
7.98 591
8.04 584
8.1 584
8.16 614
8.22 638
8.28 582
8.34 595
8.4 615
8.46 595
8.52 584
8.58 561
8.64 576
8.7 595
8.76 555
8.82 589
8.88 615
8.94 603
9 595
9.06 556
9.12 568
9.18 574
9.24 549
9.3 569
9.36 582
9.42 559
9.48 610
9.54 595
9.6 569
9.66 597
9.72 533
9.78 570
9.84 554
9.9 579
9.96 581
10.02 568
10.08 549
10.14 555
10.2 522
10.26 570
10.32 553
10.38 572
10.44 526
10.5 533
10.56 498
10.62 573
10.68 538
10.74 493
10.8 515
10.86 535
10.92 555
10.98 545
11.04 546
11.1 529
11.16 573
11.22 534
11.28 567
11.34 553
11.4 529
11.46 520
11.52 519
11.58 544
11.64 532
11.7 487
11.76 507
11.82 546
11.88 539
11.94 544
12 504
12.06 541
12.12 531
12.18 559
12.24 534
12.3 527
12.36 511
12.42 527
12.48 556
12.54 485
12.6 472
12.66 548
12.72 546
12.78 479
12.84 551
12.9 539
12.96 525
13.02 563
13.08 557
13.14 573
13.2 574
13.26 541
13.32 540
13.38 518
13.44 557
13.5 550
13.56 558
13.62 554
13.68 539
13.74 549
13.8 530
13.86 597
13.92 567
13.98 551
14.04 554
14.1 535
14.16 577
14.22 608
14.28 613
14.34 604
14.4 549
14.46 576
14.52 593
14.58 616
14.64 586
14.7 558
14.76 607
14.82 607
14.88 638
14.94 637
15 669
15.06 655
15.12 651
15.18 616
15.24 601
15.3 616
15.36 580
15.42 625
15.48 673
15.54 619
15.6 652
15.66 673
15.72 660
15.78 670
15.84 636
15.9 638
15.96 653
16.02 642
16.08 674
16.14 632
16.2 682
16.26 651
16.32 653
16.38 694
16.44 685
16.5 685
16.56 718
16.62 716
16.68 738
16.74 858
16.8 892
16.86 1039
16.92 1399
16.98 1693
17.04 1181
17.1 896
17.16 742
17.22 789
17.28 766
17.34 768
17.4 795
17.46 748
17.52 748
17.58 761
17.64 796
17.7 767
17.76 772
17.82 824
17.88 785
17.94 805
18 822
18.06 840
18.12 791
18.18 817
18.24 845
18.3 867
18.36 864
18.42 851
18.48 875
18.54 875
18.6 901
18.66 884
18.72 891
18.78 899
18.84 898
18.9 939
18.96 871
19.02 885
19.08 897
19.14 931
19.2 910
19.26 970
19.32 927
19.38 940
19.44 919
19.5 916
19.56 961
19.62 953
19.68 983
19.74 935
19.8 972
19.86 1004
19.92 1023
19.98 979
20 1021