File: xrd-UiO-67/pxrddata/37-6.ASC
3 3411
3.06 2992
3.12 2720
3.18 2608
3.24 2575
3.3 2587
3.36 2457
3.42 2371
3.48 2304
3.54 2312
3.6 2347
3.66 2317
3.72 2268
3.78 2285
3.84 2257
3.9 2214
3.96 2163
4.02 2124
4.08 2227
4.14 2070
4.2 2206
4.26 2133
4.32 2143
4.38 2107
4.44 2052
4.5 2040
4.56 1959
4.62 2018
4.68 2015
4.74 1963
4.8 1966
4.86 2000
4.92 1905
4.98 1943
5.04 1962
5.1 1866
5.16 1791
5.22 1767
5.28 1767
5.34 1650
5.4 1518
5.46 1494
5.52 1467
5.58 1407
5.64 1414
5.7 1407
5.76 1287
5.82 1269
5.88 1271
5.94 1223
6 1199
6.06 1162
6.12 1116
6.18 1056
6.24 1084
6.3 1007
6.36 1024
6.42 941
6.48 982
6.54 976
6.6 945
6.66 926
6.72 950
6.78 931
6.84 890
6.9 891
6.96 866
7.02 879
7.08 838
7.14 886
7.2 877
7.26 866
7.32 836
7.38 760
7.44 789
7.5 813
7.56 829
7.62 820
7.68 801
7.74 789
7.8 793
7.86 792
7.92 735
7.98 750
8.04 741
8.1 753
8.16 761
8.22 776
8.28 739
8.34 758
8.4 709
8.46 725
8.52 730
8.58 738
8.64 703
8.7 746
8.76 738
8.82 690
8.88 732
8.94 709
9 724
9.06 729
9.12 748
9.18 735
9.24 678
9.3 710
9.36 728
9.42 690
9.48 733
9.54 723
9.6 711
9.66 705
9.72 736
9.78 730
9.84 689
9.9 711
9.96 694
10.02 703
10.08 684
10.14 679
10.2 660
10.26 648
10.32 657
10.38 641
10.44 627
10.5 642
10.56 608
10.62 626
10.68 619
10.74 613
10.8 644
10.86 670
10.92 603
10.98 636
11.04 650
11.1 639
11.16 669
11.22 615
11.28 618
11.34 610
11.4 617
11.46 639
11.52 613
11.58 613
11.64 623
11.7 614
11.76 577
11.82 667
11.88 637
11.94 632
12 604
12.06 647
12.12 619
12.18 639
12.24 628
12.3 601
12.36 626
12.42 612
12.48 621
12.54 604
12.6 624
12.66 644
12.72 634
12.78 638
12.84 639
12.9 619
12.96 602
13.02 626
13.08 610
13.14 617
13.2 661
13.26 690
13.32 664
13.38 619
13.44 679
13.5 642
13.56 622
13.62 629
13.68 625
13.74 640
13.8 666
13.86 645
13.92 648
13.98 620
14.04 691
14.1 659
14.16 650
14.22 658
14.28 650
14.34 654
14.4 628
14.46 632
14.52 641
14.58 702
14.64 674
14.7 692
14.76 724
14.82 711
14.88 662
14.94 702
15 679
15.06 731
15.12 684
15.18 708
15.24 718
15.3 709
15.36 786
15.42 722
15.48 721
15.54 686
15.6 673
15.66 766
15.72 770
15.78 758
15.84 739
15.9 722
15.96 820
16.02 716
16.08 741
16.14 766
16.2 740
16.26 782
16.32 781
16.38 813
16.44 838
16.5 800
16.56 854
16.62 944
16.68 966
16.74 1057
16.8 1230
16.86 1512
16.92 2452
16.98 6118
17.04 5577
17.1 1312
17.16 1001
17.22 951
17.28 865
17.34 874
17.4 903
17.46 885
17.52 907
17.58 970
17.64 873
17.7 897
17.76 920
17.82 960
17.88 914
17.94 891
18 942
18.06 947
18.12 925
18.18 959
18.24 1001
18.3 1029
18.36 955
18.42 1006
18.48 930
18.54 970
18.6 1009
18.66 1044
18.72 993
18.78 1015
18.84 982
18.9 1012
18.96 1013
19.02 1051
19.08 1030
19.14 1040
19.2 1079
19.26 1089
19.32 1129
19.38 998
19.44 1077
19.5 1043
19.56 1074
19.62 1123
19.68 1102
19.74 1159
19.8 1063
19.86 1105
19.92 1153
19.98 1107
20 1137