File: xrd-UiO-67/pxrddata/37-7.ASC
3 2640
3.06 2191
3.12 1853
3.18 1833
3.24 1730
3.3 1685
3.36 1705
3.42 1684
3.48 1633
3.54 1492
3.6 1475
3.66 1417
3.72 1416
3.78 1480
3.84 1392
3.9 1419
3.96 1372
4.02 1279
4.08 1276
4.14 1244
4.2 1236
4.26 1220
4.32 1123
4.38 1144
4.44 1129
4.5 1138
4.56 1054
4.62 1082
4.68 1053
4.74 1048
4.8 1036
4.86 1011
4.92 952
4.98 894
5.04 980
5.1 938
5.16 875
5.22 907
5.28 917
5.34 908
5.4 856
5.46 920
5.52 871
5.58 861
5.64 850
5.7 840
5.76 852
5.82 834
5.88 775
5.94 783
6 790
6.06 785
6.12 726
6.18 755
6.24 759
6.3 766
6.36 774
6.42 725
6.48 794
6.54 796
6.6 753
6.66 755
6.72 723
6.78 671
6.84 731
6.9 720
6.96 716
7.02 665
7.08 717
7.14 693
7.2 726
7.26 680
7.32 677
7.38 680
7.44 715
7.5 682
7.56 694
7.62 660
7.68 698
7.74 636
7.8 651
7.86 667
7.92 639
7.98 688
8.04 675
8.1 684
8.16 658
8.22 659
8.28 668
8.34 653
8.4 634
8.46 656
8.52 612
8.58 650
8.64 609
8.7 648
8.76 622
8.82 646
8.88 607
8.94 625
9 590
9.06 629
9.12 633
9.18 602
9.24 626
9.3 621
9.36 631
9.42 591
9.48 665
9.54 626
9.6 585
9.66 567
9.72 618
9.78 619
9.84 590
9.9 621
9.96 583
10.02 618
10.08 518
10.14 598
10.2 589
10.26 592
10.32 596
10.38 569
10.44 588
10.5 606
10.56 565
10.62 628
10.68 571
10.74 562
10.8 546
10.86 583
10.92 590
10.98 603
11.04 571
11.1 581
11.16 536
11.22 567
11.28 599
11.34 563
11.4 585
11.46 567
11.52 534
11.58 537
11.64 573
11.7 591
11.76 595
11.82 596
11.88 593
11.94 560
12 559
12.06 599
12.12 538
12.18 632
12.24 587
12.3 559
12.36 560
12.42 594
12.48 581
12.54 625
12.6 578
12.66 588
12.72 609
12.78 552
12.84 568
12.9 587
12.96 585
13.02 609
13.08 640
13.14 557
13.2 616
13.26 617
13.32 610
13.38 608
13.44 591
13.5 622
13.56 644
13.62 578
13.68 609
13.74 596
13.8 654
13.86 630
13.92 630
13.98 634
14.04 621
14.1 631
14.16 658
14.22 640
14.28 614
14.34 633
14.4 646
14.46 620
14.52 616
14.58 625
14.64 680
14.7 656
14.76 692
14.82 665
14.88 667
14.94 653
15 678
15.06 688
15.12 679
15.18 691
15.24 692
15.3 723
15.36 748
15.42 683
15.48 711
15.54 730
15.6 689
15.66 675
15.72 764
15.78 746
15.84 760
15.9 745
15.96 728
16.02 734
16.08 740
16.14 757
16.2 753
16.26 769
16.32 784
16.38 753
16.44 804
16.5 836
16.56 802
16.62 863
16.68 851
16.74 870
16.8 916
16.86 1084
16.92 1392
16.98 1732
17.04 1403
17.1 1011
17.16 869
17.22 898
17.28 866
17.34 868
17.4 866
17.46 911
17.52 898
17.58 912
17.64 958
17.7 950
17.76 886
17.82 954
17.88 875
17.94 942
18 903
18.06 943
18.12 900
18.18 939
18.24 962
18.3 956
18.36 951
18.42 989
18.48 990
18.54 982
18.6 984
18.66 1022
18.72 1074
18.78 977
18.84 1023
18.9 1018
18.96 1083
19.02 1100
19.08 1054
19.14 1087
19.2 1084
19.26 1081
19.32 1107
19.38 1054
19.44 1078
19.5 1119
19.56 1140
19.62 1144
19.68 1134
19.74 1185
19.8 1196
19.86 1157
19.92 1210
19.98 1194
20 1188