File: xrd-UiO-67/pxrddata/37-8.ASC
3 3160
3.06 2594
3.12 2370
3.18 2268
3.24 2208
3.3 2113
3.36 2028
3.42 1927
3.48 1874
3.54 1811
3.6 1741
3.66 1734
3.72 1666
3.78 1649
3.84 1634
3.9 1603
3.96 1561
4.02 1524
4.08 1475
4.14 1496
4.2 1397
4.26 1481
4.32 1362
4.38 1318
4.44 1369
4.5 1296
4.56 1303
4.62 1312
4.68 1307
4.74 1221
4.8 1277
4.86 1282
4.92 1250
4.98 1261
5.04 1283
5.1 1296
5.16 1404
5.22 1395
5.28 1500
5.34 1803
5.4 2108
5.46 1460
5.52 1407
5.58 1357
5.64 1436
5.7 1465
5.76 1394
5.82 1109
5.88 989
5.94 948
6 902
6.06 856
6.12 857
6.18 813
6.24 783
6.3 765
6.36 782
6.42 754
6.48 781
6.54 795
6.6 748
6.66 754
6.72 775
6.78 720
6.84 739
6.9 710
6.96 748
7.02 712
7.08 726
7.14 684
7.2 710
7.26 632
7.32 676
7.38 687
7.44 675
7.5 687
7.56 608
7.62 661
7.68 662
7.74 659
7.8 678
7.86 662
7.92 654
7.98 664
8.04 644
8.1 647
8.16 627
8.22 652
8.28 648
8.34 605
8.4 635
8.46 609
8.52 639
8.58 605
8.64 641
8.7 659
8.76 629
8.82 610
8.88 621
8.94 628
9 663
9.06 675
9.12 686
9.18 783
9.24 767
9.3 1220
9.36 753
9.42 688
9.48 577
9.54 646
9.6 602
9.66 565
9.72 602
9.78 640
9.84 613
9.9 591
9.96 579
10.02 647
10.08 654
10.14 591
10.2 657
10.26 545
10.32 566
10.38 582
10.44 590
10.5 569
10.56 587
10.62 610
10.68 664
10.74 799
10.8 708
10.86 652
10.92 668
10.98 632
11.04 586
11.1 573
11.16 560
11.22 587
11.28 552
11.34 571
11.4 582
11.46 565
11.52 573
11.58 582
11.64 560
11.7 556
11.76 545
11.82 602
11.88 515
11.94 552
12 553
12.06 545
12.12 614
12.18 582
12.24 593
12.3 581
12.36 573
12.42 572
12.48 545
12.54 581
12.6 538
12.66 536
12.72 592
12.78 543
12.84 576
12.9 589
12.96 595
13.02 533
13.08 540
13.14 617
13.2 577
13.26 578
13.32 591
13.38 614
13.44 539
13.5 605
13.56 543
13.62 581
13.68 562
13.74 556
13.8 568
13.86 570
13.92 557
13.98 604
14.04 595
14.1 597
14.16 620
14.22 605
14.28 614
14.34 592
14.4 603
14.46 601
14.52 593
14.58 597
14.64 571
14.7 613
14.76 632
14.82 618
14.88 583
14.94 604
15 603
15.06 595
15.12 613
15.18 630
15.24 655
15.3 666
15.36 617
15.42 648
15.48 657
15.54 623
15.6 682
15.66 615
15.72 680
15.78 619
15.84 659
15.9 698
15.96 673
16.02 624
16.08 672
16.14 671
16.2 689
16.26 719
16.32 674
16.38 725
16.44 664
16.5 710
16.56 735
16.62 701
16.68 827
16.74 784
16.8 827
16.86 826
16.92 973
16.98 1073
17.04 719
17.1 709
17.16 751
17.22 795
17.28 770
17.34 781
17.4 785
17.46 799
17.52 817
17.58 863
17.64 763
17.7 787
17.76 802
17.82 783
17.88 818
17.94 794
18 799
18.06 818
18.12 807
18.18 874
18.24 874
18.3 831
18.36 835
18.42 817
18.48 879
18.54 892
18.6 895
18.66 927
18.72 867
18.78 946
18.84 946
18.9 907
18.96 946
19.02 985
19.08 969
19.14 959
19.2 930
19.26 921
19.32 968
19.38 1056
19.44 1048
19.5 1008
19.56 939
19.62 983
19.68 992
19.74 1026
19.8 1004
19.86 1012
19.92 987
19.98 959
20 1021