File: xrd-UiO-67/pxrddata/37-9.ASC
3 2432
3.06 2008
3.12 1776
3.18 1741
3.24 1663
3.3 1613
3.36 1505
3.42 1518
3.48 1386
3.54 1399
3.6 1436
3.66 1299
3.72 1236
3.78 1193
3.84 1140
3.9 1188
3.96 1181
4.02 1157
4.08 1029
4.14 1006
4.2 1069
4.26 1047
4.32 974
4.38 923
4.44 951
4.5 916
4.56 914
4.62 880
4.68 822
4.74 818
4.8 812
4.86 828
4.92 794
4.98 816
5.04 810
5.1 747
5.16 780
5.22 741
5.28 731
5.34 725
5.4 693
5.46 724
5.52 736
5.58 695
5.64 676
5.7 680
5.76 659
5.82 665
5.88 679
5.94 668
6 670
6.06 630
6.12 679
6.18 672
6.24 625
6.3 628
6.36 671
6.42 616
6.48 652
6.54 692
6.6 620
6.66 610
6.72 584
6.78 651
6.84 605
6.9 578
6.96 591
7.02 561
7.08 588
7.14 555
7.2 561
7.26 638
7.32 599
7.38 577
7.44 563
7.5 575
7.56 584
7.62 549
7.68 557
7.74 591
7.8 601
7.86 572
7.92 570
7.98 572
8.04 583
8.1 583
8.16 534
8.22 537
8.28 546
8.34 539
8.4 531
8.46 567
8.52 575
8.58 579
8.64 578
8.7 596
8.76 632
8.82 611
8.88 679
8.94 795
9 1260
9.06 1280
9.12 586
9.18 581
9.24 509
9.3 526
9.36 525
9.42 542
9.48 493
9.54 524
9.6 549
9.66 550
9.72 540
9.78 511
9.84 496
9.9 519
9.96 591
10.02 498
10.08 483
10.14 506
10.2 483
10.26 488
10.32 468
10.38 462
10.44 519
10.5 472
10.56 477
10.62 495
10.68 487
10.74 480
10.8 484
10.86 462
10.92 463
10.98 497
11.04 448
11.1 486
11.16 453
11.22 478
11.28 449
11.34 469
11.4 459
11.46 466
11.52 428
11.58 444
11.64 517
11.7 491
11.76 447
11.82 472
11.88 458
11.94 487
12 470
12.06 451
12.12 454
12.18 471
12.24 474
12.3 500
12.36 524
12.42 461
12.48 458
12.54 448
12.6 473
12.66 446
12.72 503
12.78 509
12.84 471
12.9 489
12.96 476
13.02 435
13.08 508
13.14 490
13.2 479
13.26 540
13.32 462
13.38 505
13.44 479
13.5 477
13.56 490
13.62 464
13.68 511
13.74 515
13.8 516
13.86 433
13.92 483
13.98 544
14.04 500
14.1 467
14.16 485
14.22 435
14.28 500
14.34 494
14.4 466
14.46 499
14.52 507
14.58 499
14.64 506
14.7 484
14.76 514
14.82 519
14.88 493
14.94 512
15 483
15.06 462
15.12 515
15.18 509
15.24 534
15.3 569
15.36 548
15.42 570
15.48 538
15.54 557
15.6 569
15.66 571
15.72 550
15.78 586
15.84 559
15.9 535
15.96 555
16.02 600
16.08 583
16.14 563
16.2 556
16.26 593
16.32 611
16.38 602
16.44 557
16.5 613
16.56 626
16.62 665
16.68 646
16.74 746
16.8 868
16.86 1267
16.92 1617
16.98 1306
17.04 993
17.1 687
17.16 651
17.22 627
17.28 639
17.34 691
17.4 640
17.46 703
17.52 687
17.58 602
17.64 651
17.7 692
17.76 652
17.82 701
17.88 672
17.94 678
18 711
18.06 712
18.12 681
18.18 700
18.24 673
18.3 703
18.36 707
18.42 719
18.48 731
18.54 751
18.6 730
18.66 771
18.72 699
18.78 713
18.84 746
18.9 725
18.96 729
19.02 744
19.08 727
19.14 778
19.2 691
19.26 737
19.32 727
19.38 758
19.44 781
19.5 769
19.56 819
19.62 790
19.68 788
19.74 797
19.8 833
19.86 784
19.92 859
19.98 835
20 827