File: xrd-UiO-67/pxrddata/38-1.ASC
3 3231
3.06 2774
3.12 2461
3.18 2310
3.24 2162
3.3 2143
3.36 1944
3.42 1879
3.48 1859
3.54 1811
3.6 1762
3.66 1731
3.72 1631
3.78 1546
3.84 1446
3.9 1423
3.96 1410
4.02 1358
4.08 1387
4.14 1352
4.2 1292
4.26 1251
4.32 1270
4.38 1207
4.44 1204
4.5 1166
4.56 1208
4.62 1219
4.68 1280
4.74 1230
4.8 1280
4.86 1302
4.92 1408
4.98 1401
5.04 1525
5.1 1806
5.16 2000
5.22 2423
5.28 2958
5.34 3839
5.4 5641
5.46 6255
5.52 3055
5.58 2207
5.64 1701
5.7 1505
5.76 1393
5.82 1284
5.88 1082
5.94 1061
6 941
6.06 873
6.12 954
6.18 848
6.24 827
6.3 793
6.36 792
6.42 761
6.48 775
6.54 782
6.6 756
6.66 807
6.72 752
6.78 803
6.84 724
6.9 697
6.96 712
7.02 688
7.08 706
7.14 649
7.2 687
7.26 650
7.32 640
7.38 678
7.44 696
7.5 635
7.56 681
7.62 706
7.68 671
7.74 657
7.8 641
7.86 689
7.92 692
7.98 694
8.04 695
8.1 683
8.16 653
8.22 657
8.28 644
8.34 625
8.4 651
8.46 668
8.52 612
8.58 654
8.64 651
8.7 671
8.76 676
8.82 676
8.88 777
8.94 739
9 757
9.06 822
9.12 905
9.18 1019
9.24 1315
9.3 1782
9.36 2410
9.42 1379
9.48 929
9.54 820
9.6 757
9.66 697
9.72 741
9.78 697
9.84 714
9.9 698
9.96 683
10.02 729
10.08 704
10.14 695
10.2 691
10.26 711
10.32 673
10.38 739
10.44 713
10.5 742
10.56 816
10.62 850
10.68 1033
10.74 1335
10.8 1669
10.86 1231
10.92 982
10.98 864
11.04 812
11.1 766
11.16 772
11.22 710
11.28 679
11.34 690
11.4 679
11.46 716
11.52 674
11.58 696
11.64 674
11.7 689
11.76 647
11.82 698
11.88 686
11.94 701
12 662
12.06 707
12.12 756
12.18 731
12.24 821
12.3 770
12.36 805
12.42 734
12.48 722
12.54 779
12.6 673
12.66 701
12.72 710
12.78 698
12.84 718
12.9 722
12.96 799
13.02 744
13.08 741
13.14 708
13.2 769
13.26 752
13.32 707
13.38 692
13.44 757
13.5 766
13.56 808
13.62 755
13.68 752
13.74 741
13.8 765
13.86 735
13.92 785
13.98 771
14.04 745
14.1 788
14.16 812
14.22 834
14.28 849
14.34 862
14.4 833
14.46 815
14.52 820
14.58 820
14.64 836
14.7 810
14.76 816
14.82 751
14.88 822
14.94 880
15 816
15.06 845
15.12 856
15.18 820
15.24 806
15.3 797
15.36 838
15.42 806
15.48 865
15.54 859
15.6 845
15.66 877
15.72 870
15.78 903
15.84 883
15.9 900
15.96 884
16.02 938
16.08 966
16.14 967
16.2 926
16.26 906
16.32 917
16.38 969
16.44 1020
16.5 990
16.56 971
16.62 961
16.68 1010
16.74 1008
16.8 982
16.86 1032
16.92 1099
16.98 1186
17.04 1145
17.1 1074
17.16 1113
17.22 1098
17.28 1109
17.34 1127
17.4 1087
17.46 1150
17.52 1137
17.58 1110
17.64 1152
17.7 1111
17.76 1151
17.82 1179
17.88 1125
17.94 1182
18 1114
18.06 1202
18.12 1225
18.18 1209
18.24 1136
18.3 1204
18.36 1210
18.42 1219
18.48 1258
18.54 1242
18.6 1282
18.66 1387
18.72 1326
18.78 1363
18.84 1275
18.9 1343
18.96 1315
19.02 1351
19.08 1332
19.14 1266
19.2 1342
19.26 1416
19.32 1470
19.38 1522
19.44 1696
19.5 1646
19.56 1650
19.62 1565
19.68 1482
19.74 1498
19.8 1416
19.86 1481
19.92 1451
19.98 1492
20 1480