File: xrd-UiO-67/pxrddata/38-28.ASC
3 3148
3.06 2638
3.12 2457
3.18 2444
3.24 2434
3.3 2185
3.36 2189
3.42 1951
3.48 1903
3.54 1849
3.6 1756
3.66 1657
3.72 1686
3.78 1585
3.84 1540
3.9 1546
3.96 1381
4.02 1450
4.08 1349
4.14 1318
4.2 1232
4.26 1248
4.32 1201
4.38 1197
4.44 1190
4.5 1089
4.56 1081
4.62 1083
4.68 1079
4.74 1060
4.8 1057
4.86 981
4.92 1003
4.98 965
5.04 997
5.1 944
5.16 1005
5.22 1066
5.28 1029
5.34 1104
5.4 1306
5.46 1280
5.52 1033
5.58 1010
5.64 967
5.7 923
5.76 880
5.82 910
5.88 857
5.94 870
6 809
6.06 788
6.12 788
6.18 784
6.24 799
6.3 788
6.36 725
6.42 784
6.48 784
6.54 807
6.6 757
6.66 776
6.72 750
6.78 795
6.84 750
6.9 712
6.96 728
7.02 766
7.08 762
7.14 760
7.2 778
7.26 683
7.32 764
7.38 708
7.44 725
7.5 773
7.56 755
7.62 752
7.68 703
7.74 737
7.8 745
7.86 751
7.92 777
7.98 716
8.04 751
8.1 748
8.16 740
8.22 753
8.28 800
8.34 730
8.4 782
8.46 734
8.52 767
8.58 733
8.64 760
8.7 724
8.76 749
8.82 781
8.88 712
8.94 767
9 771
9.06 780
9.12 801
9.18 793
9.24 812
9.3 853
9.36 937
9.42 803
9.48 743
9.54 724
9.6 799
9.66 766
9.72 766
9.78 774
9.84 752
9.9 765
9.96 765
10.02 807
10.08 757
10.14 742
10.2 758
10.26 788
10.32 761
10.38 796
10.44 770
10.5 742
10.56 818
10.62 778
10.68 834
10.74 837
10.8 864
10.86 797
10.92 788
10.98 776
11.04 844
11.1 841
11.16 770
11.22 840
11.28 807
11.34 781
11.4 814
11.46 814
11.52 825
11.58 845
11.64 839
11.7 861
11.76 804
11.82 875
11.88 872
11.94 790
12 866
12.06 846
12.12 831
12.18 898
12.24 872
12.3 889
12.36 836
12.42 898
12.48 905
12.54 885
12.6 932
12.66 955
12.72 924
12.78 913
12.84 949
12.9 863
12.96 898
13.02 917
13.08 956
13.14 972
13.2 947
13.26 976
13.32 1006
13.38 981
13.44 984
13.5 982
13.56 950
13.62 949
13.68 1009
13.74 1000
13.8 1004
13.86 1014
13.92 973
13.98 1035
14.04 1019
14.1 1027
14.16 1042
14.22 1109
14.28 1128
14.34 1089
14.4 1149
14.46 1106
14.52 1151
14.58 1104
14.64 1131
14.7 1207
14.76 1140
14.82 1164
14.88 1130
14.94 1193
15 1233
15.06 1227
15.12 1200
15.18 1269
15.24 1257
15.3 1267
15.36 1189
15.42 1267
15.48 1292
15.54 1284
15.6 1294
15.66 1353
15.72 1322
15.78 1341
15.84 1387
15.9 1354
15.96 1367
16.02 1371
16.08 1358
16.14 1425
16.2 1499
16.26 1480
16.32 1438
16.38 1511
16.44 1468
16.5 1525
16.56 1550
16.62 1528
16.68 1531
16.74 1630
16.8 1673
16.86 1806
16.92 2119
16.98 2389
17.04 2418
17.1 1909
17.16 1740
17.22 1750
17.28 1706
17.34 1750
17.4 1805
17.46 1715
17.52 1777
17.58 1821
17.64 1842
17.7 1817
17.76 1839
17.82 1866
17.88 1956
17.94 1836
18 1962
18.06 1917
18.12 1986
18.18 1983
18.24 2017
18.3 2017
18.36 2005
18.42 1972
18.48 2062
18.54 2088
18.6 2161
18.66 2063
18.72 2148
18.78 2133
18.84 2134
18.9 2122
18.96 2183
19.02 2257
19.08 2240
19.14 2329
19.2 2220
19.26 2247
19.32 2305
19.38 2375
19.44 2316
19.5 2351
19.56 2370
19.62 2405
19.68 2391
19.74 2345
19.8 2442
19.86 2410
19.92 2394
19.98 2421
20 2407