File: xrd-UiO-67/pxrddata/38-23.ASC
3 2568
3.06 2116
3.12 2053
3.18 1965
3.24 1920
3.3 1874
3.36 1723
3.42 1671
3.48 1535
3.54 1492
3.6 1399
3.66 1368
3.72 1365
3.78 1285
3.84 1298
3.9 1191
3.96 1260
4.02 1184
4.08 1217
4.14 1157
4.2 1109
4.26 1102
4.32 1148
4.38 1093
4.44 1064
4.5 1039
4.56 1006
4.62 979
4.68 1034
4.74 954
4.8 942
4.86 916
4.92 881
4.98 919
5.04 888
5.1 869
5.16 854
5.22 832
5.28 827
5.34 821
5.4 820
5.46 773
5.52 818
5.58 805
5.64 805
5.7 802
5.76 895
5.82 822
5.88 782
5.94 820
6 753
6.06 741
6.12 771
6.18 805
6.24 824
6.3 765
6.36 807
6.42 744
6.48 774
6.54 754
6.6 742
6.66 758
6.72 711
6.78 760
6.84 762
6.9 804
6.96 686
7.02 745
7.08 746
7.14 735
7.2 693
7.26 748
7.32 764
7.38 750
7.44 795
7.5 701
7.56 775
7.62 708
7.68 761
7.74 728
7.8 733
7.86 724
7.92 787
7.98 759
8.04 749
8.1 712
8.16 761
8.22 748
8.28 760
8.34 767
8.4 742
8.46 819
8.52 753
8.58 755
8.64 803
8.7 820
8.76 824
8.82 917
8.88 973
8.94 1272
9 1660
9.06 1425
9.12 912
9.18 758
9.24 793
9.3 766
9.36 771
9.42 736
9.48 769
9.54 754
9.6 849
9.66 778
9.72 869
9.78 851
9.84 877
9.9 1068
9.96 1277
10.02 1001
10.08 783
10.14 746
10.2 756
10.26 755
10.32 736
10.38 707
10.44 737
10.5 723
10.56 703
10.62 761
10.68 778
10.74 704
10.8 701
10.86 709
10.92 744
10.98 686
11.04 741
11.1 732
11.16 742
11.22 742
11.28 726
11.34 730
11.4 692
11.46 766
11.52 794
11.58 724
11.64 733
11.7 763
11.76 690
11.82 713
11.88 721
11.94 756
12 710
12.06 715
12.12 709
12.18 771
12.24 759
12.3 717
12.36 725
12.42 770
12.48 770
12.54 689
12.6 689
12.66 778
12.72 805
12.78 805
12.84 726
12.9 722
12.96 711
13.02 736
13.08 746
13.14 774
13.2 748
13.26 788
13.32 826
13.38 839
13.44 920
13.5 851
13.56 777
13.62 813
13.68 793
13.74 757
13.8 760
13.86 729
13.92 759
13.98 767
14.04 759
14.1 766
14.16 782
14.22 778
14.28 782
14.34 759
14.4 777
14.46 776
14.52 811
14.58 780
14.64 784
14.7 780
14.76 789
14.82 792
14.88 815
14.94 848
15 768
15.06 835
15.12 816
15.18 803
15.24 866
15.3 859
15.36 810
15.42 830
15.48 808
15.54 847
15.6 855
15.66 821
15.72 868
15.78 916
15.84 881
15.9 864
15.96 884
16.02 925
16.08 937
16.14 875
16.2 937
16.26 933
16.32 921
16.38 840
16.44 913
16.5 969
16.56 961
16.62 983
16.68 947
16.74 1025
16.8 1134
16.86 1317
16.92 1603
16.98 1903
17.04 1611
17.1 1187
17.16 1016
17.22 1056
17.28 1022
17.34 1041
17.4 1005
17.46 1045
17.52 1064
17.58 1063
17.64 1037
17.7 1030
17.76 1130
17.82 1135
17.88 1122
17.94 1158
18 1086
18.06 1125
18.12 1070
18.18 1125
18.24 1166
18.3 1210
18.36 1103
18.42 1131
18.48 1170
18.54 1261
18.6 1177
18.66 1197
18.72 1187
18.78 1205
18.84 1213
18.9 1262
18.96 1282
19.02 1240
19.08 1295
19.14 1246
19.2 1242
19.26 1257
19.32 1299
19.38 1298
19.44 1349
19.5 1383
19.56 1355
19.62 1318
19.68 1362
19.74 1386
19.8 1389
19.86 1426
19.92 1455
19.98 1458
20 1418