File: xrd-UiO-67/pxrddata/38-22.ASC
3 2189
3.06 1876
3.12 1591
3.18 1515
3.24 1533
3.3 1420
3.36 1393
3.42 1370
3.48 1311
3.54 1243
3.6 1237
3.66 1258
3.72 1217
3.78 1161
3.84 1078
3.9 1142
3.96 1059
4.02 997
4.08 963
4.14 998
4.2 986
4.26 953
4.32 915
4.38 935
4.44 864
4.5 851
4.56 814
4.62 839
4.68 858
4.74 793
4.8 771
4.86 796
4.92 821
4.98 793
5.04 807
5.1 862
5.16 860
5.22 980
5.28 1092
5.34 1214
5.4 1426
5.46 1841
5.52 2219
5.58 1546
5.64 1119
5.7 1091
5.76 1002
5.82 1064
5.88 951
5.94 806
6 724
6.06 710
6.12 648
6.18 613
6.24 598
6.3 635
6.36 573
6.42 632
6.48 555
6.54 600
6.6 584
6.66 584
6.72 614
6.78 594
6.84 585
6.9 586
6.96 562
7.02 562
7.08 600
7.14 541
7.2 525
7.26 574
7.32 568
7.38 541
7.44 533
7.5 537
7.56 541
7.62 588
7.68 504
7.74 561
7.8 546
7.86 535
7.92 567
7.98 546
8.04 514
8.1 550
8.16 533
8.22 539
8.28 513
8.34 517
8.4 558
8.46 561
8.52 504
8.58 542
8.64 500
8.7 519
8.76 514
8.82 529
8.88 549
8.94 573
9 481
9.06 533
9.12 601
9.18 607
9.24 618
9.3 719
9.36 842
9.42 1024
9.48 847
9.54 583
9.6 522
9.66 514
9.72 520
9.78 549
9.84 541
9.9 515
9.96 524
10.02 519
10.08 555
10.14 549
10.2 545
10.26 546
10.32 518
10.38 537
10.44 548
10.5 490
10.56 572
10.62 569
10.68 550
10.74 643
10.8 698
10.86 738
10.92 714
10.98 663
11.04 581
11.1 603
11.16 530
11.22 527
11.28 501
11.34 513
11.4 480
11.46 498
11.52 465
11.58 519
11.64 515
11.7 553
11.76 513
11.82 470
11.88 513
11.94 501
12 501
12.06 547
12.12 525
12.18 552
12.24 532
12.3 560
12.36 512
12.42 519
12.48 520
12.54 514
12.6 508
12.66 511
12.72 495
12.78 531
12.84 561
12.9 535
12.96 510
13.02 524
13.08 535
13.14 558
13.2 544
13.26 568
13.32 560
13.38 538
13.44 562
13.5 586
13.56 613
13.62 575
13.68 606
13.74 590
13.8 550
13.86 559
13.92 572
13.98 534
14.04 566
14.1 621
14.16 618
14.22 617
14.28 630
14.34 601
14.4 665
14.46 677
14.52 592
14.58 652
14.64 626
14.7 609
14.76 678
14.82 601
14.88 684
14.94 641
15 661
15.06 620
15.12 628
15.18 666
15.24 659
15.3 657
15.36 688
15.42 686
15.48 658
15.54 726
15.6 704
15.66 650
15.72 695
15.78 628
15.84 681
15.9 694
15.96 681
16.02 754
16.08 748
16.14 748
16.2 761
16.26 740
16.32 816
16.38 770
16.44 800
16.5 816
16.56 759
16.62 718
16.68 786
16.74 759
16.8 769
16.86 805
16.92 892
16.98 872
17.04 1057
17.1 1143
17.16 1014
17.22 861
17.28 928
17.34 943
17.4 933
17.46 918
17.52 962
17.58 863
17.64 906
17.7 927
17.76 903
17.82 1011
17.88 958
17.94 992
18 990
18.06 1016
18.12 987
18.18 1047
18.24 1030
18.3 1077
18.36 1003
18.42 1039
18.48 1026
18.54 1053
18.6 1082
18.66 1111
18.72 1149
18.78 1120
18.84 1137
18.9 1120
18.96 1093
19.02 1146
19.08 1178
19.14 1242
19.2 1172
19.26 1202
19.32 1211
19.38 1154
19.44 1220
19.5 1314
19.56 1384
19.62 1346
19.68 1332
19.74 1271
19.8 1293
19.86 1321
19.92 1238
19.98 1313
20 1257