File: xrd-UiO-67/pxrddata/38-2.ASC
3 3404
3.06 3022
3.12 2723
3.18 2470
3.24 2435
3.3 2329
3.36 2198
3.42 2147
3.48 2041
3.54 2002
3.6 1891
3.66 1762
3.72 1660
3.78 1675
3.84 1566
3.9 1523
3.96 1489
4.02 1486
4.08 1387
4.14 1389
4.2 1397
4.26 1233
4.32 1236
4.38 1238
4.44 1184
4.5 1182
4.56 1121
4.62 1046
4.68 1048
4.74 1011
4.8 1045
4.86 1059
4.92 1016
4.98 1000
5.04 977
5.1 921
5.16 901
5.22 931
5.28 837
5.34 895
5.4 845
5.46 821
5.52 835
5.58 790
5.64 837
5.7 783
5.76 814
5.82 796
5.88 760
5.94 748
6 715
6.06 739
6.12 785
6.18 718
6.24 741
6.3 712
6.36 724
6.42 719
6.48 698
6.54 737
6.6 675
6.66 705
6.72 741
6.78 669
6.84 710
6.9 666
6.96 649
7.02 684
7.08 635
7.14 627
7.2 628
7.26 624
7.32 617
7.38 619
7.44 585
7.5 652
7.56 643
7.62 593
7.68 610
7.74 592
7.8 608
7.86 641
7.92 582
7.98 609
8.04 587
8.1 608
8.16 577
8.22 570
8.28 602
8.34 540
8.4 608
8.46 561
8.52 606
8.58 581
8.64 608
8.7 498
8.76 579
8.82 596
8.88 540
8.94 526
9 529
9.06 535
9.12 541
9.18 561
9.24 493
9.3 552
9.36 487
9.42 583
9.48 508
9.54 537
9.6 537
9.66 541
9.72 512
9.78 561
9.84 522
9.9 494
9.96 517
10.02 525
10.08 527
10.14 513
10.2 510
10.26 518
10.32 502
10.38 509
10.44 515
10.5 518
10.56 520
10.62 519
10.68 528
10.74 537
10.8 475
10.86 513
10.92 507
10.98 503
11.04 492
11.1 522
11.16 487
11.22 498
11.28 500
11.34 517
11.4 507
11.46 461
11.52 459
11.58 523
11.64 532
11.7 520
11.76 567
11.82 505
11.88 517
11.94 495
12 488
12.06 507
12.12 559
12.18 527
12.24 534
12.3 505
12.36 531
12.42 528
12.48 518
12.54 489
12.6 518
12.66 493
12.72 508
12.78 527
12.84 522
12.9 497
12.96 506
13.02 527
13.08 518
13.14 541
13.2 539
13.26 546
13.32 546
13.38 521
13.44 508
13.5 527
13.56 553
13.62 526
13.68 542
13.74 516
13.8 512
13.86 527
13.92 535
13.98 537
14.04 553
14.1 553
14.16 570
14.22 568
14.28 577
14.34 533
14.4 544
14.46 570
14.52 575
14.58 582
14.64 563
14.7 588
14.76 568
14.82 598
14.88 591
14.94 571
15 586
15.06 566
15.12 570
15.18 618
15.24 599
15.3 638
15.36 595
15.42 554
15.48 627
15.54 575
15.6 607
15.66 639
15.72 622
15.78 673
15.84 619
15.9 673
15.96 649
16.02 628
16.08 629
16.14 657
16.2 698
16.26 664
16.32 712
16.38 650
16.44 661
16.5 663
16.56 746
16.62 743
16.68 773
16.74 911
16.8 1062
16.86 1490
16.92 2203
16.98 2402
17.04 1355
17.1 888
17.16 792
17.22 763
17.28 751
17.34 716
17.4 728
17.46 751
17.52 811
17.58 778
17.64 792
17.7 801
17.76 793
17.82 815
17.88 846
17.94 817
18 859
18.06 806
18.12 862
18.18 865
18.24 847
18.3 853
18.36 852
18.42 880
18.48 887
18.54 906
18.6 906
18.66 856
18.72 872
18.78 919
18.84 883
18.9 909
18.96 893
19.02 956
19.08 857
19.14 922
19.2 977
19.26 996
19.32 971
19.38 965
19.44 987
19.5 994
19.56 998
19.62 1005
19.68 1017
19.74 1040
19.8 996
19.86 1029
19.92 999
19.98 1086
20 1073