File: xrd-UiO-67/pxrddata/38-21.ASC
3 3192
3.06 2691
3.12 2442
3.18 2378
3.24 2244
3.3 2043
3.36 2045
3.42 1968
3.48 1917
3.54 1804
3.6 1751
3.66 1654
3.72 1692
3.78 1614
3.84 1556
3.9 1505
3.96 1421
4.02 1426
4.08 1351
4.14 1336
4.2 1255
4.26 1300
4.32 1311
4.38 1223
4.44 1227
4.5 1188
4.56 1215
4.62 1148
4.68 1169
4.74 1122
4.8 1142
4.86 1131
4.92 1174
4.98 1141
5.04 1165
5.1 1199
5.16 1321
5.22 1279
5.28 1431
5.34 1482
5.4 1700
5.46 2015
5.52 2441
5.58 3307
5.64 4391
5.7 7749
5.76 19468
5.82 1578
5.88 1340
5.94 1045
6 1057
6.06 979
6.12 974
6.18 988
6.24 1050
6.3 1070
6.36 1224
6.42 1386
6.48 1587
6.54 1977
6.6 3490
6.66 1997
6.72 851
6.78 793
6.84 723
6.9 706
6.96 757
7.02 715
7.08 667
7.14 681
7.2 626
7.26 657
7.32 655
7.38 654
7.44 639
7.5 607
7.56 664
7.62 603
7.68 610
7.74 632
7.8 613
7.86 623
7.92 631
7.98 594
8.04 567
8.1 588
8.16 593
8.22 590
8.28 568
8.34 557
8.4 598
8.46 567
8.52 598
8.58 550
8.64 548
8.7 592
8.76 627
8.82 579
8.88 621
8.94 644
9 722
9.06 724
9.12 868
9.18 1061
9.24 1287
9.3 2092
9.36 4445
9.42 738
9.48 614
9.54 622
9.6 578
9.66 566
9.72 587
9.78 538
9.84 558
9.9 586
9.96 540
10.02 567
10.08 528
10.14 527
10.2 591
10.26 581
10.32 578
10.38 581
10.44 553
10.5 553
10.56 563
10.62 571
10.68 669
10.74 757
10.8 914
10.86 1084
10.92 1790
10.98 2791
11.04 643
11.1 631
11.16 617
11.22 671
11.28 733
11.34 868
11.4 1332
11.46 3007
11.52 744
11.58 517
11.64 554
11.7 536
11.76 523
11.82 537
11.88 533
11.94 552
12 536
12.06 559
12.12 535
12.18 559
12.24 535
12.3 518
12.36 524
12.42 530
12.48 520
12.54 536
12.6 542
12.66 528
12.72 520
12.78 484
12.84 491
12.9 544
12.96 586
13.02 569
13.08 604
13.14 674
13.2 858
13.26 755
13.32 550
13.38 520
13.44 539
13.5 533
13.56 561
13.62 553
13.68 571
13.74 547
13.8 565
13.86 570
13.92 579
13.98 556
14.04 519
14.1 614
14.16 568
14.22 620
14.28 659
14.34 723
14.4 944
14.46 811
14.52 577
14.58 593
14.64 627
14.7 655
14.76 621
14.82 563
14.88 557
14.94 632
15 591
15.06 623
15.12 607
15.18 644
15.24 600
15.3 600
15.36 606
15.42 633
15.48 639
15.54 640
15.6 634
15.66 639
15.72 623
15.78 643
15.84 623
15.9 613
15.96 619
16.02 636
16.08 644
16.14 658
16.2 638
16.26 643
16.32 678
16.38 643
16.44 702
16.5 705
16.56 683
16.62 674
16.68 699
16.74 707
16.8 652
16.86 691
16.92 761
16.98 795
17.04 795
17.1 837
17.16 985
17.22 972
17.28 776
17.34 812
17.4 747
17.46 781
17.52 784
17.58 753
17.64 798
17.7 752
17.76 754
17.82 783
17.88 777
17.94 788
18 792
18.06 802
18.12 748
18.18 794
18.24 839
18.3 795
18.36 865
18.42 860
18.48 856
18.54 860
18.6 856
18.66 858
18.72 946
18.78 883
18.84 866
18.9 942
18.96 917
19.02 868
19.08 919
19.14 895
19.2 1019
19.26 927
19.32 956
19.38 980
19.44 1083
19.5 1290
19.56 1978
19.62 1665
19.68 1093
19.74 1275
19.8 1614
19.86 2873
19.92 1833
19.98 1062
20 1005