File: xrd-UiO-67/pxrddata/38-26.ASC
3 3394
3.06 2966
3.12 2750
3.18 2643
3.24 2547
3.3 2446
3.36 2455
3.42 2417
3.48 2352
3.54 2224
3.6 2258
3.66 2266
3.72 2251
3.78 2168
3.84 2155
3.9 2185
3.96 2171
4.02 2152
4.08 2101
4.14 2092
4.2 2102
4.26 2086
4.32 2000
4.38 2102
4.44 2035
4.5 2079
4.56 2049
4.62 2030
4.68 2020
4.74 1964
4.8 2053
4.86 1962
4.92 2005
4.98 1997
5.04 1970
5.1 1959
5.16 1954
5.22 1980
5.28 2120
5.34 2116
5.4 2390
5.46 2247
5.52 2090
5.58 1873
5.64 1811
5.7 1684
5.76 1769
5.82 1566
5.88 1532
5.94 1393
6 1380
6.06 1366
6.12 1277
6.18 1298
6.24 1205
6.3 1228
6.36 1171
6.42 1138
6.48 1169
6.54 1087
6.6 1067
6.66 1051
6.72 1005
6.78 1066
6.84 998
6.9 1056
6.96 954
7.02 994
7.08 969
7.14 942
7.2 955
7.26 945
7.32 921
7.38 902
7.44 904
7.5 938
7.56 869
7.62 867
7.68 940
7.74 900
7.8 860
7.86 851
7.92 839
7.98 790
8.04 864
8.1 825
8.16 784
8.22 821
8.28 789
8.34 806
8.4 766
8.46 770
8.52 787
8.58 772
8.64 784
8.7 782
8.76 772
8.82 786
8.88 741
8.94 778
9 751
9.06 752
9.12 825
9.18 733
9.24 842
9.3 948
9.36 943
9.42 850
9.48 800
9.54 765
9.6 734
9.66 685
9.72 701
9.78 701
9.84 680
9.9 672
9.96 650
10.02 657
10.08 686
10.14 640
10.2 713
10.26 669
10.32 706
10.38 620
10.44 603
10.5 639
10.56 661
10.62 636
10.68 710
10.74 683
10.8 724
10.86 708
10.92 759
10.98 646
11.04 628
11.1 602
11.16 642
11.22 576
11.28 640
11.34 580
11.4 578
11.46 568
11.52 595
11.58 586
11.64 544
11.7 555
11.76 578
11.82 594
11.88 588
11.94 599
12 598
12.06 613
12.12 573
12.18 553
12.24 578
12.3 562
12.36 544
12.42 566
12.48 556
12.54 566
12.6 584
12.66 523
12.72 507
12.78 571
12.84 534
12.9 554
12.96 596
13.02 588
13.08 585
13.14 578
13.2 629
13.26 681
13.32 666
13.38 584
13.44 560
13.5 544
13.56 554
13.62 571
13.68 520
13.74 580
13.8 586
13.86 513
13.92 568
13.98 548
14.04 551
14.1 566
14.16 539
14.22 554
14.28 519
14.34 592
14.4 570
14.46 565
14.52 544
14.58 539
14.64 519
14.7 580
14.76 549
14.82 553
14.88 532
14.94 548
15 545
15.06 598
15.12 538
15.18 597
15.24 566
15.3 604
15.36 636
15.42 580
15.48 576
15.54 535
15.6 546
15.66 559
15.72 578
15.78 534
15.84 549
15.9 535
15.96 521
16.02 603
16.08 627
16.14 582
16.2 586
16.26 628
16.32 664
16.38 663
16.44 698
16.5 741
16.56 758
16.62 861
16.68 952
16.74 1288
16.8 1860
16.86 2866
16.92 4925
16.98 7860
17.04 7614
17.1 3859
17.16 1661
17.22 1002
17.28 815
17.34 744
17.4 708
17.46 720
17.52 711
17.58 682
17.64 631
17.7 675
17.76 663
17.82 698
17.88 673
17.94 654
18 675
18.06 644
18.12 642
18.18 623
18.24 686
18.3 645
18.36 690
18.42 639
18.48 685
18.54 694
18.6 645
18.66 660
18.72 647
18.78 628
18.84 694
18.9 662
18.96 728
19.02 656
19.08 739
19.14 661
19.2 677
19.26 679
19.32 688
19.38 736
19.44 708
19.5 699
19.56 708
19.62 694
19.68 711
19.74 742
19.8 745
19.86 742
19.92 758
19.98 706
20 692