File: xrd-UiO-67/pxrddata/38-31.ASC
3 2902
3.06 2578
3.12 2265
3.18 2279
3.24 2059
3.3 2018
3.36 1889
3.42 1867
3.48 1847
3.54 1802
3.6 1784
3.66 1788
3.72 1828
3.78 1772
3.84 1780
3.9 1846
3.96 1801
4.02 2057
4.08 2082
4.14 1987
4.2 1781
4.26 1620
4.32 1511
4.38 1416
4.44 1350
4.5 1283
4.56 1357
4.62 1265
4.68 1201
4.74 1223
4.8 1199
4.86 1294
4.92 1300
4.98 1354
5.04 1451
5.1 1555
5.16 1782
5.22 1983
5.28 2335
5.34 3012
5.4 4463
5.46 3115
5.52 2475
5.58 2486
5.64 2692
5.7 3105
5.76 3465
5.82 2176
5.88 1276
5.94 1079
6 927
6.06 887
6.12 848
6.18 816
6.24 765
6.3 828
6.36 786
6.42 827
6.48 841
6.54 855
6.6 799
6.66 928
6.72 884
6.78 891
6.84 809
6.9 750
6.96 744
7.02 689
7.08 710
7.14 643
7.2 718
7.26 667
7.32 701
7.38 644
7.44 683
7.5 690
7.56 634
7.62 667
7.68 630
7.74 636
7.8 637
7.86 644
7.92 669
7.98 679
8.04 688
8.1 730
8.16 684
8.22 699
8.28 695
8.34 672
8.4 607
8.46 647
8.52 569
8.58 632
8.64 581
8.7 647
8.76 634
8.82 619
8.88 648
8.94 693
9 668
9.06 730
9.12 849
9.18 994
9.24 1200
9.3 1688
9.36 1446
9.42 722
9.48 670
9.54 661
9.6 625
9.66 633
9.72 624
9.78 614
9.84 704
9.9 663
9.96 679
10.02 669
10.08 742
10.14 746
10.2 772
10.26 667
10.32 620
10.38 573
10.44 636
10.5 610
10.56 671
10.62 709
10.68 822
10.74 977
10.8 1029
10.86 919
10.92 1012
10.98 927
11.04 688
11.1 601
11.16 621
11.22 635
11.28 627
11.34 681
11.4 652
11.46 717
11.52 717
11.58 702
11.64 632
11.7 590
11.76 625
11.82 612
11.88 592
11.94 644
12 582
12.06 661
12.12 736
12.18 761
12.24 818
12.3 741
12.36 656
12.42 644
12.48 624
12.54 641
12.6 652
12.66 588
12.72 657
12.78 556
12.84 630
12.9 658
12.96 637
13.02 581
13.08 600
13.14 628
13.2 633
13.26 694
13.32 620
13.38 636
13.44 657
13.5 660
13.56 618
13.62 602
13.68 627
13.74 622
13.8 660
13.86 696
13.92 664
13.98 635
14.04 659
14.1 674
14.16 649
14.22 713
14.28 693
14.34 658
14.4 724
14.46 685
14.52 700
14.58 645
14.64 759
14.7 671
14.76 690
14.82 728
14.88 728
14.94 713
15 685
15.06 721
15.12 685
15.18 775
15.24 725
15.3 720
15.36 725
15.42 728
15.48 727
15.54 748
15.6 772
15.66 691
15.72 733
15.78 761
15.84 720
15.9 771
15.96 693
16.02 813
16.08 794
16.14 826
16.2 811
16.26 878
16.32 867
16.38 879
16.44 898
16.5 875
16.56 897
16.62 820
16.68 944
16.74 961
16.8 1009
16.86 1167
16.92 1482
16.98 2249
17.04 1811
17.1 1047
17.16 966
17.22 974
17.28 972
17.34 971
17.4 937
17.46 925
17.52 965
17.58 956
17.64 935
17.7 1000
17.76 958
17.82 1013
17.88 1047
17.94 1001
18 1006
18.06 1074
18.12 1027
18.18 995
18.24 1026
18.3 1050
18.36 1098
18.42 1057
18.48 995
18.54 1070
18.6 1096
18.66 1229
18.72 1174
18.78 1186
18.84 1170
18.9 1203
18.96 1176
19.02 1204
19.08 1289
19.14 1269
19.2 1267
19.26 1168
19.32 1280
19.38 1367
19.44 1420
19.5 1426
19.56 1357
19.62 1326
19.68 1198
19.74 1290
19.8 1284
19.86 1323
19.92 1322
19.98 1287
20 1252