File: xrd-UiO-67/pxrddata/38-39.ASC
3 2516
3.06 2059
3.12 1750
3.18 1679
3.24 1554
3.3 1658
3.36 1555
3.42 1486
3.48 1376
3.54 1356
3.6 1378
3.66 1370
3.72 1353
3.78 1216
3.84 1200
3.9 1253
3.96 1218
4.02 1196
4.08 1160
4.14 1161
4.2 1130
4.26 1034
4.32 958
4.38 952
4.44 945
4.5 987
4.56 872
4.62 933
4.68 952
4.74 888
4.8 892
4.86 893
4.92 905
4.98 919
5.04 1034
5.1 987
5.16 1122
5.22 1196
5.28 1314
5.34 1485
5.4 1956
5.46 1889
5.52 1577
5.58 1364
5.64 1381
5.7 1489
5.76 1599
5.82 1303
5.88 1090
5.94 803
6 766
6.06 776
6.12 764
6.18 681
6.24 688
6.3 695
6.36 704
6.42 688
6.48 675
6.54 665
6.6 634
6.66 688
6.72 744
6.78 713
6.84 709
6.9 713
6.96 678
7.02 655
7.08 635
7.14 618
7.2 657
7.26 685
7.32 663
7.38 637
7.44 653
7.5 629
7.56 615
7.62 672
7.68 628
7.74 649
7.8 650
7.86 639
7.92 644
7.98 641
8.04 637
8.1 667
8.16 627
8.22 650
8.28 647
8.34 631
8.4 599
8.46 597
8.52 620
8.58 617
8.64 629
8.7 629
8.76 662
8.82 608
8.88 655
8.94 704
9 679
9.06 653
9.12 690
9.18 722
9.24 820
9.3 963
9.36 982
9.42 835
9.48 707
9.54 669
9.6 621
9.66 607
9.72 681
9.78 569
9.84 627
9.9 590
9.96 622
10.02 627
10.08 678
10.14 662
10.2 667
10.26 671
10.32 679
10.38 604
10.44 609
10.5 620
10.56 689
10.62 706
10.68 720
10.74 748
10.8 883
10.86 753
10.92 765
10.98 765
11.04 681
11.1 662
11.16 652
11.22 623
11.28 632
11.34 613
11.4 643
11.46 682
11.52 692
11.58 656
11.64 641
11.7 636
11.76 671
11.82 674
11.88 631
11.94 657
12 614
12.06 678
12.12 636
12.18 719
12.24 712
12.3 701
12.36 681
12.42 658
12.48 661
12.54 658
12.6 676
12.66 665
12.72 666
12.78 702
12.84 683
12.9 644
12.96 682
13.02 681
13.08 703
13.14 671
13.2 707
13.26 712
13.32 700
13.38 715
13.44 733
13.5 706
13.56 718
13.62 713
13.68 703
13.74 741
13.8 701
13.86 752
13.92 691
13.98 733
14.04 777
14.1 769
14.16 706
14.22 756
14.28 771
14.34 783
14.4 794
14.46 779
14.52 784
14.58 822
14.64 832
14.7 762
14.76 785
14.82 833
14.88 814
14.94 863
15 862
15.06 867
15.12 821
15.18 834
15.24 818
15.3 906
15.36 884
15.42 885
15.48 898
15.54 890
15.6 910
15.66 899
15.72 892
15.78 923
15.84 875
15.9 911
15.96 959
16.02 967
16.08 981
16.14 925
16.2 962
16.26 971
16.32 994
16.38 1027
16.44 942
16.5 1030
16.56 1026
16.62 1053
16.68 1053
16.74 1114
16.8 1141
16.86 1151
16.92 1274
16.98 1405
17.04 1344
17.1 1162
17.16 1141
17.22 1111
17.28 1142
17.34 1125
17.4 1200
17.46 1175
17.52 1182
17.58 1209
17.64 1227
17.7 1216
17.76 1244
17.82 1200
17.88 1194
17.94 1259
18 1317
18.06 1251
18.12 1330
18.18 1343
18.24 1274
18.3 1309
18.36 1330
18.42 1347
18.48 1327
18.54 1368
18.6 1398
18.66 1336
18.72 1428
18.78 1438
18.84 1474
18.9 1514
18.96 1439
19.02 1492
19.08 1512
19.14 1496
19.2 1536
19.26 1542
19.32 1552
19.38 1629
19.44 1691
19.5 1586
19.56 1646
19.62 1602
19.68 1603
19.74 1621
19.8 1588
19.86 1683
19.92 1672
19.98 1694
20 1645