File: xrd-UiO-67/pxrddata/38-3.ASC
3 2595
3.06 2058
3.12 1908
3.18 1813
3.24 1646
3.3 1555
3.36 1515
3.42 1479
3.48 1437
3.54 1365
3.6 1320
3.66 1285
3.72 1205
3.78 1133
3.84 1147
3.9 1171
3.96 1054
4.02 1033
4.08 1045
4.14 973
4.2 954
4.26 925
4.32 926
4.38 908
4.44 851
4.5 859
4.56 876
4.62 832
4.68 795
4.74 833
4.8 823
4.86 790
4.92 745
4.98 788
5.04 697
5.1 699
5.16 711
5.22 693
5.28 690
5.34 703
5.4 724
5.46 684
5.52 659
5.58 694
5.64 677
5.7 658
5.76 658
5.82 650
5.88 705
5.94 651
6 660
6.06 609
6.12 651
6.18 674
6.24 646
6.3 641
6.36 629
6.42 640
6.48 695
6.54 602
6.6 648
6.66 635
6.72 594
6.78 640
6.84 619
6.9 652
6.96 624
7.02 657
7.08 639
7.14 609
7.2 627
7.26 621
7.32 645
7.38 607
7.44 576
7.5 622
7.56 599
7.62 635
7.68 603
7.74 605
7.8 640
7.86 630
7.92 602
7.98 616
8.04 619
8.1 622
8.16 604
8.22 593
8.28 571
8.34 642
8.4 610
8.46 641
8.52 603
8.58 625
8.64 602
8.7 646
8.76 669
8.82 646
8.88 738
8.94 766
9 821
9.06 724
9.12 638
9.18 592
9.24 614
9.3 599
9.36 618
9.42 548
9.48 586
9.54 561
9.6 620
9.66 607
9.72 598
9.78 611
9.84 628
9.9 630
9.96 719
10.02 645
10.08 587
10.14 563
10.2 596
10.26 563
10.32 565
10.38 590
10.44 569
10.5 561
10.56 545
10.62 553
10.68 541
10.74 560
10.8 542
10.86 573
10.92 545
10.98 587
11.04 551
11.1 566
11.16 573
11.22 548
11.28 551
11.34 577
11.4 604
11.46 546
11.52 561
11.58 598
11.64 557
11.7 558
11.76 576
11.82 593
11.88 543
11.94 566
12 574
12.06 573
12.12 571
12.18 593
12.24 561
12.3 560
12.36 595
12.42 570
12.48 582
12.54 581
12.6 603
12.66 607
12.72 591
12.78 622
12.84 561
12.9 600
12.96 595
13.02 584
13.08 612
13.14 604
13.2 605
13.26 636
13.32 627
13.38 666
13.44 692
13.5 652
13.56 612
13.62 614
13.68 633
13.74 627
13.8 623
13.86 591
13.92 618
13.98 654
14.04 645
14.1 641
14.16 618
14.22 652
14.28 664
14.34 619
14.4 658
14.46 631
14.52 699
14.58 692
14.64 676
14.7 729
14.76 643
14.82 702
14.88 674
14.94 734
15 670
15.06 701
15.12 665
15.18 664
15.24 737
15.3 749
15.36 731
15.42 708
15.48 697
15.54 735
15.6 722
15.66 723
15.72 753
15.78 764
15.84 731
15.9 781
15.96 784
16.02 753
16.08 764
16.14 797
16.2 759
16.26 794
16.32 774
16.38 800
16.44 853
16.5 898
16.56 819
16.62 840
16.68 805
16.74 914
16.8 950
16.86 926
16.92 1025
16.98 1123
17.04 1103
17.1 942
17.16 921
17.22 948
17.28 952
17.34 965
17.4 936
17.46 982
17.52 1030
17.58 995
17.64 940
17.7 1007
17.76 946
17.82 982
17.88 1061
17.94 1051
18 1028
18.06 1042
18.12 1045
18.18 1020
18.24 1034
18.3 1098
18.36 1103
18.42 1151
18.48 1089
18.54 1090
18.6 1180
18.66 1160
18.72 1135
18.78 1139
18.84 1136
18.9 1196
18.96 1136
19.02 1210
19.08 1185
19.14 1240
19.2 1181
19.26 1299
19.32 1235
19.38 1308
19.44 1172
19.5 1310
19.56 1270
19.62 1268
19.68 1278
19.74 1326
19.8 1314
19.86 1347
19.92 1390
19.98 1318
20 1366