File: xrd-UiO-67/pxrddata/38-32.ASC
3 2566
3.06 2229
3.12 2048
3.18 1903
3.24 1865
3.3 1739
3.36 1763
3.42 1686
3.48 1549
3.54 1571
3.6 1493
3.66 1483
3.72 1467
3.78 1400
3.84 1320
3.9 1438
3.96 1263
4.02 1282
4.08 1250
4.14 1201
4.2 1229
4.26 1214
4.32 1184
4.38 1129
4.44 1154
4.5 1098
4.56 1160
4.62 1102
4.68 1118
4.74 1046
4.8 1087
4.86 1054
4.92 1102
4.98 1104
5.04 1138
5.1 1104
5.16 1082
5.22 1231
5.28 1327
5.34 1426
5.4 1594
5.46 1706
5.52 1354
5.58 1202
5.64 1094
5.7 994
5.76 1018
5.82 948
5.88 944
5.94 944
6 923
6.06 958
6.12 902
6.18 917
6.24 879
6.3 836
6.36 903
6.42 866
6.48 799
6.54 900
6.6 846
6.66 849
6.72 812
6.78 875
6.84 858
6.9 872
6.96 828
7.02 813
7.08 823
7.14 836
7.2 840
7.26 794
7.32 835
7.38 782
7.44 764
7.5 834
7.56 866
7.62 787
7.68 787
7.74 808
7.8 801
7.86 773
7.92 851
7.98 798
8.04 810
8.1 819
8.16 806
8.22 784
8.28 772
8.34 794
8.4 774
8.46 773
8.52 810
8.58 793
8.64 775
8.7 796
8.76 794
8.82 770
8.88 791
8.94 751
9 782
9.06 789
9.12 816
9.18 846
9.24 820
9.3 988
9.36 1010
9.42 895
9.48 830
9.54 797
9.6 841
9.66 774
9.72 759
9.78 821
9.84 755
9.9 747
9.96 749
10.02 771
10.08 769
10.14 751
10.2 796
10.26 741
10.32 765
10.38 736
10.44 818
10.5 774
10.56 823
10.62 773
10.68 823
10.74 879
10.8 822
10.86 842
10.92 828
10.98 828
11.04 821
11.1 775
11.16 774
11.22 805
11.28 766
11.34 748
11.4 750
11.46 778
11.52 800
11.58 842
11.64 822
11.7 813
11.76 793
11.82 848
11.88 795
11.94 767
12 832
12.06 837
12.12 823
12.18 818
12.24 877
12.3 828
12.36 788
12.42 850
12.48 921
12.54 844
12.6 876
12.66 826
12.72 827
12.78 809
12.84 846
12.9 892
12.96 839
13.02 870
13.08 885
13.14 922
13.2 873
13.26 852
13.32 850
13.38 892
13.44 947
13.5 839
13.56 919
13.62 923
13.68 948
13.74 912
13.8 897
13.86 944
13.92 929
13.98 956
14.04 974
14.1 909
14.16 924
14.22 981
14.28 1002
14.34 1020
14.4 936
14.46 1007
14.52 960
14.58 978
14.64 967
14.7 976
14.76 1016
14.82 1083
14.88 1017
14.94 1006
15 1015
15.06 1032
15.12 1072
15.18 1080
15.24 1101
15.3 1074
15.36 1092
15.42 1057
15.48 1050
15.54 1082
15.6 1193
15.66 1161
15.72 1102
15.78 1086
15.84 1140
15.9 1097
15.96 1164
16.02 1198
16.08 1196
16.14 1215
16.2 1199
16.26 1215
16.32 1185
16.38 1179
16.44 1194
16.5 1219
16.56 1292
16.62 1306
16.68 1356
16.74 1394
16.8 1368
16.86 1529
16.92 1658
16.98 2016
17.04 2079
17.1 1678
17.16 1509
17.22 1444
17.28 1414
17.34 1436
17.4 1405
17.46 1436
17.52 1479
17.58 1416
17.64 1487
17.7 1532
17.76 1483
17.82 1570
17.88 1555
17.94 1539
18 1564
18.06 1598
18.12 1625
18.18 1651
18.24 1683
18.3 1714
18.36 1631
18.42 1729
18.48 1656
18.54 1685
18.6 1717
18.66 1767
18.72 1806
18.78 1839
18.84 1851
18.9 1882
18.96 1771
19.02 1798
19.08 1791
19.14 1876
19.2 1900
19.26 1838
19.32 1898
19.38 1952
19.44 1954
19.5 2019
19.56 1970
19.62 1980
19.68 2014
19.74 2007
19.8 2086
19.86 2063
19.92 2021
19.98 2008
20 2015