File: xrd-UiO-67/pxrddata/38-35.ASC
3 2414
3.06 2003
3.12 1787
3.18 1696
3.24 1636
3.3 1608
3.36 1573
3.42 1519
3.48 1434
3.54 1463
3.6 1437
3.66 1443
3.72 1412
3.78 1355
3.84 1381
3.9 1428
3.96 1485
4.02 1477
4.08 1451
4.14 1394
4.2 1265
4.26 1184
4.32 1137
4.38 1074
4.44 1110
4.5 1083
4.56 1073
4.62 1135
4.68 1025
4.74 1093
4.8 1047
4.86 1031
4.92 1096
4.98 1103
5.04 1266
5.1 1440
5.16 1509
5.22 1729
5.28 1987
5.34 2494
5.4 3437
5.46 2263
5.52 2080
5.58 2227
5.64 2412
5.7 2899
5.76 3235
5.82 1937
5.88 1114
5.94 925
6 908
6.06 839
6.12 820
6.18 782
6.24 804
6.3 806
6.36 790
6.42 800
6.48 767
6.54 790
6.6 803
6.66 818
6.72 885
6.78 852
6.84 798
6.9 722
6.96 722
7.02 661
7.08 716
7.14 716
7.2 682
7.26 673
7.32 641
7.38 671
7.44 646
7.5 649
7.56 650
7.62 694
7.68 640
7.74 662
7.8 647
7.86 677
7.92 675
7.98 675
8.04 655
8.1 668
8.16 696
8.22 681
8.28 683
8.34 636
8.4 621
8.46 678
8.52 635
8.58 650
8.64 655
8.7 672
8.76 627
8.82 624
8.88 676
8.94 687
9 691
9.06 737
9.12 778
9.18 923
9.24 1063
9.3 1574
9.36 1105
9.42 682
9.48 674
9.54 670
9.6 680
9.66 638
9.72 666
9.78 652
9.84 656
9.9 651
9.96 627
10.02 695
10.08 714
10.14 814
10.2 755
10.26 630
10.32 594
10.38 659
10.44 609
10.5 636
10.56 702
10.62 718
10.68 807
10.74 921
10.8 958
10.86 913
10.92 964
10.98 859
11.04 683
11.1 630
11.16 677
11.22 603
11.28 689
11.34 680
11.4 646
11.46 673
11.52 733
11.58 719
11.64 698
11.7 585
11.76 607
11.82 679
11.88 618
11.94 696
12 635
12.06 636
12.12 681
12.18 672
12.24 692
12.3 671
12.36 622
12.42 661
12.48 637
12.54 660
12.6 638
12.66 578
12.72 612
12.78 607
12.84 654
12.9 628
12.96 654
13.02 682
13.08 701
13.14 744
13.2 891
13.26 1142
13.32 726
13.38 702
13.44 685
13.5 645
13.56 645
13.62 649
13.68 703
13.74 692
13.8 686
13.86 680
13.92 665
13.98 702
14.04 672
14.1 675
14.16 704
14.22 743
14.28 746
14.34 732
14.4 732
14.46 705
14.52 740
14.58 674
14.64 704
14.7 746
14.76 700
14.82 705
14.88 748
14.94 794
15 715
15.06 703
15.12 774
15.18 736
15.24 799
15.3 753
15.36 803
15.42 792
15.48 746
15.54 775
15.6 741
15.66 799
15.72 772
15.78 723
15.84 750
15.9 797
15.96 822
16.02 766
16.08 808
16.14 839
16.2 839
16.26 852
16.32 832
16.38 895
16.44 832
16.5 867
16.56 890
16.62 861
16.68 952
16.74 994
16.8 1235
16.86 1171
16.92 1795
16.98 3118
17.04 1941
17.1 1010
17.16 972
17.22 974
17.28 1027
17.34 1000
17.4 989
17.46 1016
17.52 950
17.58 978
17.64 1002
17.7 1031
17.76 1000
17.82 1061
17.88 1044
17.94 1090
18 1085
18.06 1082
18.12 1083
18.18 1007
18.24 1025
18.3 1083
18.36 1068
18.42 1066
18.48 1135
18.54 1164
18.6 1106
18.66 1106
18.72 1125
18.78 1169
18.84 1208
18.9 1218
18.96 1229
19.02 1190
19.08 1307
19.14 1281
19.2 1223
19.26 1231
19.32 1269
19.38 1329
19.44 1400
19.5 1394
19.56 1359
19.62 1270
19.68 1287
19.74 1359
19.8 1390
19.86 1287
19.92 1322
19.98 1338
20 1284