File: xrd-UiO-67/pxrddata/38-30.ASC
3 2813
3.06 2451
3.12 2248
3.18 2169
3.24 2039
3.3 2013
3.36 1934
3.42 1932
3.48 1865
3.54 1845
3.6 1830
3.66 1771
3.72 1709
3.78 1736
3.84 1650
3.9 1614
3.96 1548
4.02 1594
4.08 1520
4.14 1545
4.2 1433
4.26 1473
4.32 1485
4.38 1455
4.44 1368
4.5 1377
4.56 1315
4.62 1386
4.68 1320
4.74 1306
4.8 1328
4.86 1297
4.92 1318
4.98 1250
5.04 1333
5.1 1344
5.16 1342
5.22 1380
5.28 1448
5.34 1514
5.4 1765
5.46 1560
5.52 1308
5.58 1271
5.64 1204
5.7 1096
5.76 1145
5.82 1012
5.88 1081
5.94 1012
6 999
6.06 1025
6.12 1000
6.18 931
6.24 922
6.3 966
6.36 974
6.42 944
6.48 909
6.54 884
6.6 844
6.66 858
6.72 909
6.78 883
6.84 836
6.9 920
6.96 760
7.02 862
7.08 816
7.14 846
7.2 838
7.26 818
7.32 848
7.38 812
7.44 820
7.5 805
7.56 776
7.62 813
7.68 823
7.74 783
7.8 790
7.86 822
7.92 770
7.98 762
8.04 748
8.1 775
8.16 739
8.22 769
8.28 749
8.34 752
8.4 733
8.46 712
8.52 773
8.58 735
8.64 745
8.7 771
8.76 735
8.82 700
8.88 710
8.94 728
9 779
9.06 751
9.12 732
9.18 770
9.24 739
9.3 823
9.36 871
9.42 730
9.48 708
9.54 711
9.6 675
9.66 696
9.72 694
9.78 694
9.84 714
9.9 631
9.96 700
10.02 721
10.08 661
10.14 673
10.2 695
10.26 682
10.32 668
10.38 640
10.44 651
10.5 681
10.56 674
10.62 706
10.68 707
10.74 767
10.8 743
10.86 720
10.92 700
10.98 716
11.04 683
11.1 676
11.16 670
11.22 715
11.28 670
11.34 681
11.4 683
11.46 702
11.52 713
11.58 653
11.64 692
11.7 732
11.76 686
11.82 674
11.88 699
11.94 699
12 736
12.06 694
12.12 719
12.18 656
12.24 701
12.3 713
12.36 713
12.42 690
12.48 689
12.54 717
12.6 716
12.66 751
12.72 748
12.78 720
12.84 706
12.9 665
12.96 676
13.02 759
13.08 745
13.14 744
13.2 727
13.26 757
13.32 732
13.38 741
13.44 732
13.5 774
13.56 738
13.62 765
13.68 714
13.74 753
13.8 734
13.86 729
13.92 777
13.98 777
14.04 774
14.1 783
14.16 782
14.22 841
14.28 777
14.34 762
14.4 822
14.46 847
14.52 848
14.58 806
14.64 816
14.7 844
14.76 810
14.82 782
14.88 841
14.94 894
15 825
15.06 819
15.12 866
15.18 851
15.24 911
15.3 866
15.36 846
15.42 903
15.48 966
15.54 927
15.6 902
15.66 1001
15.72 942
15.78 927
15.84 921
15.9 1000
15.96 967
16.02 929
16.08 1000
16.14 1001
16.2 998
16.26 931
16.32 1035
16.38 1024
16.44 1004
16.5 1075
16.56 1076
16.62 1136
16.68 1161
16.74 1247
16.8 1335
16.86 1523
16.92 2088
16.98 2801
17.04 2380
17.1 1511
17.16 1173
17.22 1178
17.28 1182
17.34 1179
17.4 1147
17.46 1267
17.52 1151
17.58 1158
17.64 1197
17.7 1259
17.76 1192
17.82 1245
17.88 1257
17.94 1278
18 1284
18.06 1307
18.12 1337
18.18 1290
18.24 1304
18.3 1313
18.36 1368
18.42 1338
18.48 1354
18.54 1410
18.6 1316
18.66 1351
18.72 1383
18.78 1442
18.84 1434
18.9 1412
18.96 1434
19.02 1374
19.08 1481
19.14 1424
19.2 1507
19.26 1551
19.32 1536
19.38 1541
19.44 1495
19.5 1549
19.56 1562
19.62 1615
19.68 1604
19.74 1611
19.8 1602
19.86 1704
19.92 1623
19.98 1637
20 1635