File: xrd-UiO-67/pxrddata/38-38-1.ASC
3 2263
3.06 1804
3.12 1557
3.18 1543
3.24 1573
3.3 1476
3.36 1492
3.42 1445
3.48 1397
3.54 1428
3.6 1372
3.66 1379
3.72 1307
3.78 1299
3.84 1299
3.9 1330
3.96 1246
4.02 1254
4.08 1240
4.14 1222
4.2 1219
4.26 1202
4.32 1184
4.38 1253
4.44 1194
4.5 1193
4.56 1274
4.62 1248
4.68 1245
4.74 1278
4.8 1217
4.86 1211
4.92 1255
4.98 1244
5.04 1257
5.1 1271
5.16 1279
5.22 1352
5.28 1425
5.34 1441
5.4 1602
5.46 1806
5.52 2043
5.58 2097
5.64 1798
5.7 1501
5.76 1334
5.82 1248
5.88 1194
5.94 1257
6 1155
6.06 1092
6.12 1057
6.18 1086
6.24 1117
6.3 1049
6.36 957
6.42 992
6.48 966
6.54 976
6.6 935
6.66 879
6.72 908
6.78 924
6.84 915
6.9 892
6.96 878
7.02 841
7.08 882
7.14 856
7.2 807
7.26 814
7.32 813
7.38 809
7.44 777
7.5 781
7.56 783
7.62 816
7.68 786
7.74 704
7.8 752
7.86 761
7.92 801
7.98 705
8.04 732
8.1 706
8.16 726
8.22 692
8.28 737
8.34 730
8.4 708
8.46 715
8.52 734
8.58 710
8.64 770
8.7 706
8.76 712
8.82 695
8.88 732
8.94 752
9 692
9.06 741
9.12 778
9.18 805
9.24 821
9.3 825
9.36 908
9.42 984
9.48 975
9.54 979
9.6 767
9.66 701
9.72 712
9.78 697
9.84 665
9.9 652
9.96 678
10.02 646
10.08 603
10.14 683
10.2 651
10.26 664
10.32 637
10.38 628
10.44 614
10.5 631
10.56 651
10.62 643
10.68 633
10.74 681
10.8 718
10.86 694
10.92 737
10.98 711
11.04 684
11.1 661
11.16 623
11.22 603
11.28 621
11.34 607
11.4 569
11.46 635
11.52 587
11.58 578
11.64 624
11.7 559
11.76 561
11.82 544
11.88 577
11.94 547
12 548
12.06 590
12.12 598
12.18 576
12.24 575
12.3 582
12.36 574
12.42 569
12.48 540
12.54 597
12.6 523
12.66 589
12.72 570
12.78 587
12.84 560
12.9 585
12.96 584
13.02 576
13.08 560
13.14 555
13.2 588
13.26 592
13.32 611
13.38 662
13.44 690
13.5 632
13.56 592
13.62 585
13.68 607
13.74 540
13.8 566
13.86 562
13.92 559
13.98 559
14.04 593
14.1 516
14.16 542
14.22 537
14.28 526
14.34 552
14.4 532
14.46 552
14.52 583
14.58 529
14.64 615
14.7 524
14.76 566
14.82 552
14.88 549
14.94 586
15 528
15.06 542
15.12 527
15.18 569
15.24 548
15.3 575
15.36 578
15.42 557
15.48 540
15.54 615
15.6 542
15.66 555
15.72 548
15.78 534
15.84 542
15.9 587
15.96 574
16.02 570
16.08 573
16.14 539
16.2 559
16.26 550
16.32 585
16.38 654
16.44 574
16.5 601
16.56 688
16.62 757
16.68 797
16.74 921
16.8 1084
16.86 1501
16.92 2220
16.98 3656
17.04 5671
17.1 7506
17.16 7147
17.22 4147
17.28 1727
17.34 1023
17.4 842
17.46 740
17.52 742
17.58 664
17.64 688
17.7 652
17.76 611
17.82 648
17.88 662
17.94 724
18 618
18.06 647
18.12 638
18.18 627
18.24 651
18.3 657
18.36 626
18.42 677
18.48 666
18.54 634
18.6 662
18.66 679
18.72 641
18.78 635
18.84 662
18.9 616
18.96 676
19.02 659
19.08 677
19.14 716
19.2 675
19.26 731
19.32 674
19.38 674
19.44 695
19.5 704
19.56 683
19.62 762
19.68 713
19.74 708
19.8 734
19.86 727
19.92 753
19.98 710
20 677