File: xrd-UiO-67/pxrddata/38-4.ASC
3 3517
3.06 3039
3.12 2658
3.18 2563
3.24 2407
3.3 2401
3.36 2167
3.42 1987
3.48 2001
3.54 1941
3.6 1839
3.66 1805
3.72 1717
3.78 1567
3.84 1554
3.9 1457
3.96 1453
4.02 1389
4.08 1290
4.14 1278
4.2 1259
4.26 1158
4.32 1118
4.38 1089
4.44 1074
4.5 1020
4.56 1037
4.62 1002
4.68 1003
4.74 913
4.8 915
4.86 927
4.92 838
4.98 846
5.04 828
5.1 841
5.16 831
5.22 823
5.28 847
5.34 789
5.4 757
5.46 748
5.52 713
5.58 726
5.64 757
5.7 716
5.76 711
5.82 697
5.88 671
5.94 703
6 731
6.06 675
6.12 651
6.18 660
6.24 658
6.3 686
6.36 649
6.42 657
6.48 627
6.54 628
6.6 620
6.66 594
6.72 684
6.78 638
6.84 650
6.9 633
6.96 593
7.02 621
7.08 532
7.14 617
7.2 632
7.26 677
7.32 575
7.38 598
7.44 621
7.5 582
7.56 604
7.62 602
7.68 638
7.74 595
7.8 547
7.86 627
7.92 621
7.98 553
8.04 545
8.1 570
8.16 562
8.22 595
8.28 625
8.34 607
8.4 558
8.46 636
8.52 596
8.58 696
8.64 738
8.7 794
8.76 916
8.82 1089
8.88 1412
8.94 2016
9 2707
9.06 1610
9.12 802
9.18 718
9.24 673
9.3 659
9.36 659
9.42 583
9.48 612
9.54 642
9.6 663
9.66 751
9.72 780
9.78 903
9.84 1123
9.9 1499
9.96 2376
10.02 1187
10.08 678
10.14 615
10.2 576
10.26 502
10.32 574
10.38 559
10.44 523
10.5 530
10.56 533
10.62 512
10.68 507
10.74 506
10.8 558
10.86 532
10.92 521
10.98 496
11.04 505
11.1 514
11.16 495
11.22 552
11.28 518
11.34 522
11.4 546
11.46 503
11.52 504
11.58 556
11.64 506
11.7 550
11.76 483
11.82 531
11.88 477
11.94 527
12 547
12.06 524
12.12 534
12.18 512
12.24 542
12.3 525
12.36 540
12.42 530
12.48 568
12.54 643
12.6 677
12.66 749
12.72 782
12.78 677
12.84 592
12.9 556
12.96 540
13.02 553
13.08 568
13.14 597
13.2 650
13.26 682
13.32 827
13.38 1028
13.44 1063
13.5 672
13.56 583
13.62 521
13.68 552
13.74 536
13.8 574
13.86 547
13.92 540
13.98 553
14.04 555
14.1 581
14.16 592
14.22 571
14.28 556
14.34 528
14.4 561
14.46 544
14.52 577
14.58 568
14.64 603
14.7 554
14.76 533
14.82 572
14.88 580
14.94 570
15 580
15.06 600
15.12 604
15.18 581
15.24 592
15.3 573
15.36 621
15.42 576
15.48 608
15.54 635
15.6 612
15.66 593
15.72 602
15.78 589
15.84 618
15.9 629
15.96 601
16.02 593
16.08 671
16.14 613
16.2 653
16.26 638
16.32 635
16.38 646
16.44 615
16.5 684
16.56 692
16.62 649
16.68 725
16.74 736
16.8 701
16.86 755
16.92 916
16.98 1101
17.04 1146
17.1 787
17.16 711
17.22 724
17.28 668
17.34 669
17.4 729
17.46 704
17.52 757
17.58 759
17.64 757
17.7 761
17.76 804
17.82 795
17.88 777
17.94 782
18 817
18.06 811
18.12 785
18.18 819
18.24 845
18.3 841
18.36 863
18.42 873
18.48 906
18.54 835
18.6 845
18.66 906
18.72 846
18.78 880
18.84 863
18.9 845
18.96 839
19.02 869
19.08 863
19.14 958
19.2 878
19.26 877
19.32 866
19.38 905
19.44 935
19.5 931
19.56 955
19.62 885
19.68 997
19.74 1002
19.8 1035
19.86 1136
19.92 1330
19.98 1265
20 1211