File: xrd-UiO-67/pxrddata/38-40.ASC
3 3069
3.06 2469
3.12 2375
3.18 2224
3.24 2129
3.3 2068
3.36 1971
3.42 1988
3.48 1879
3.54 1756
3.6 1764
3.66 1689
3.72 1702
3.78 1562
3.84 1604
3.9 1489
3.96 1460
4.02 1436
4.08 1346
4.14 1299
4.2 1220
4.26 1276
4.32 1256
4.38 1238
4.44 1177
4.5 1160
4.56 1143
4.62 1110
4.68 1070
4.74 1081
4.8 1023
4.86 1062
4.92 991
4.98 1050
5.04 1020
5.1 1015
5.16 974
5.22 1071
5.28 1137
5.34 1200
5.4 1319
5.46 1462
5.52 1409
5.58 1083
5.64 955
5.7 955
5.76 903
5.82 882
5.88 842
5.94 825
6 809
6.06 826
6.12 788
6.18 765
6.24 827
6.3 748
6.36 704
6.42 700
6.48 768
6.54 701
6.6 710
6.66 656
6.72 743
6.78 704
6.84 712
6.9 728
6.96 654
7.02 725
7.08 655
7.14 700
7.2 677
7.26 674
7.32 695
7.38 690
7.44 726
7.5 689
7.56 696
7.62 677
7.68 638
7.74 665
7.8 671
7.86 578
7.92 656
7.98 635
8.04 666
8.1 588
8.16 603
8.22 603
8.28 620
8.34 612
8.4 670
8.46 681
8.52 631
8.58 624
8.64 631
8.7 648
8.76 602
8.82 600
8.88 603
8.94 598
9 616
9.06 612
9.12 612
9.18 604
9.24 638
9.3 698
9.36 743
9.42 720
9.48 684
9.54 629
9.6 627
9.66 613
9.72 600
9.78 619
9.84 589
9.9 544
9.96 556
10.02 575
10.08 575
10.14 600
10.2 564
10.26 559
10.32 590
10.38 575
10.44 615
10.5 620
10.56 608
10.62 644
10.68 560
10.74 664
10.8 657
10.86 666
10.92 611
10.98 602
11.04 622
11.1 606
11.16 589
11.22 562
11.28 606
11.34 588
11.4 589
11.46 545
11.52 604
11.58 600
11.64 562
11.7 572
11.76 607
11.82 612
11.88 587
11.94 581
12 580
12.06 619
12.12 583
12.18 617
12.24 555
12.3 582
12.36 607
12.42 660
12.48 615
12.54 621
12.6 540
12.66 567
12.72 590
12.78 586
12.84 619
12.9 610
12.96 662
13.02 623
13.08 643
13.14 593
13.2 599
13.26 639
13.32 644
13.38 641
13.44 643
13.5 625
13.56 638
13.62 653
13.68 641
13.74 646
13.8 645
13.86 621
13.92 650
13.98 650
14.04 676
14.1 669
14.16 705
14.22 679
14.28 677
14.34 688
14.4 663
14.46 710
14.52 715
14.58 717
14.64 702
14.7 727
14.76 734
14.82 745
14.88 662
14.94 701
15 760
15.06 741
15.12 672
15.18 750
15.24 760
15.3 751
15.36 746
15.42 758
15.48 823
15.54 747
15.6 746
15.66 806
15.72 820
15.78 757
15.84 774
15.9 789
15.96 824
16.02 840
16.08 841
16.14 872
16.2 848
16.26 852
16.32 881
16.38 855
16.44 877
16.5 878
16.56 856
16.62 976
16.68 940
16.74 924
16.8 1007
16.86 1031
16.92 1085
16.98 1405
17.04 1654
17.1 1388
17.16 1143
17.22 1019
17.28 1017
17.34 1029
17.4 1061
17.46 1027
17.52 1050
17.58 1035
17.64 1022
17.7 1129
17.76 1091
17.82 1109
17.88 1145
17.94 1089
18 1096
18.06 1117
18.12 1120
18.18 1128
18.24 1098
18.3 1125
18.36 1184
18.42 1237
18.48 1232
18.54 1197
18.6 1208
18.66 1262
18.72 1226
18.78 1250
18.84 1212
18.9 1200
18.96 1251
19.02 1281
19.08 1300
19.14 1287
19.2 1309
19.26 1341
19.32 1342
19.38 1323
19.44 1360
19.5 1344
19.56 1405
19.62 1416
19.68 1351
19.74 1433
19.8 1419
19.86 1452
19.92 1488
19.98 1421
20 1478