File: xrd-UiO-67/pxrddata/38-6.ASC
3 3108
3.06 2822
3.12 2526
3.18 2359
3.24 2292
3.3 2172
3.36 2202
3.42 2017
3.48 2017
3.54 1989
3.6 1900
3.66 1797
3.72 1816
3.78 1781
3.84 1673
3.9 1643
3.96 1586
4.02 1510
4.08 1556
4.14 1453
4.2 1470
4.26 1526
4.32 1388
4.38 1369
4.44 1397
4.5 1341
4.56 1284
4.62 1262
4.68 1336
4.74 1347
4.8 1277
4.86 1355
4.92 1353
4.98 1427
5.04 1428
5.1 1515
5.16 1598
5.22 1760
5.28 1920
5.34 2182
5.4 2963
5.46 2892
5.52 1817
5.58 1603
5.64 1367
5.7 1319
5.76 1271
5.82 1127
5.88 1052
5.94 960
6 917
6.06 892
6.12 843
6.18 821
6.24 803
6.3 827
6.36 836
6.42 790
6.48 788
6.54 811
6.6 737
6.66 771
6.72 717
6.78 711
6.84 660
6.9 670
6.96 747
7.02 682
7.08 731
7.14 670
7.2 697
7.26 626
7.32 678
7.38 666
7.44 645
7.5 663
7.56 663
7.62 633
7.68 679
7.74 637
7.8 648
7.86 661
7.92 623
7.98 633
8.04 659
8.1 652
8.16 665
8.22 683
8.28 678
8.34 664
8.4 623
8.46 659
8.52 708
8.58 819
8.64 862
8.7 893
8.76 1082
8.82 1289
8.88 1867
8.94 2981
9 2678
9.06 1315
9.12 848
9.18 826
9.24 915
9.3 1088
9.36 1322
9.42 842
9.48 683
9.54 695
9.6 703
9.66 707
9.72 769
9.78 794
9.84 883
9.9 1187
9.96 1572
10.02 792
10.08 618
10.14 577
10.2 606
10.26 609
10.32 579
10.38 565
10.44 579
10.5 582
10.56 626
10.62 599
10.68 644
10.74 757
10.8 847
10.86 754
10.92 695
10.98 636
11.04 578
11.1 576
11.16 494
11.22 548
11.28 543
11.34 541
11.4 532
11.46 552
11.52 505
11.58 565
11.64 473
11.7 522
11.76 523
11.82 533
11.88 495
11.94 530
12 514
12.06 544
12.12 581
12.18 547
12.24 624
12.3 609
12.36 580
12.42 572
12.48 561
12.54 603
12.6 616
12.66 714
12.72 671
12.78 583
12.84 549
12.9 560
12.96 540
13.02 537
13.08 477
13.14 560
13.2 570
13.26 609
13.32 670
13.38 844
13.44 832
13.5 663
13.56 571
13.62 527
13.68 532
13.74 581
13.8 517
13.86 544
13.92 517
13.98 500
14.04 535
14.1 546
14.16 503
14.22 529
14.28 576
14.34 533
14.4 520
14.46 536
14.52 522
14.58 516
14.64 489
14.7 520
14.76 508
14.82 500
14.88 535
14.94 539
15 544
15.06 511
15.12 540
15.18 555
15.24 564
15.3 546
15.36 564
15.42 575
15.48 516
15.54 524
15.6 543
15.66 565
15.72 519
15.78 584
15.84 560
15.9 554
15.96 563
16.02 578
16.08 571
16.14 597
16.2 557
16.26 620
16.32 582
16.38 575
16.44 559
16.5 594
16.56 529
16.62 578
16.68 583
16.74 583
16.8 635
16.86 596
16.92 742
16.98 829
17.04 788
17.1 614
17.16 646
17.22 650
17.28 617
17.34 657
17.4 626
17.46 613
17.52 632
17.58 624
17.64 683
17.7 654
17.76 708
17.82 665
17.88 691
17.94 723
18 700
18.06 698
18.12 659
18.18 657
18.24 686
18.3 694
18.36 756
18.42 707
18.48 750
18.54 680
18.6 716
18.66 751
18.72 760
18.78 727
18.84 751
18.9 764
18.96 695
19.02 713
19.08 754
19.14 750
19.2 770
19.26 776
19.32 776
19.38 839
19.44 863
19.5 937
19.56 875
19.62 862
19.68 845
19.74 790
19.8 825
19.86 964
19.92 1112
19.98 940
20 894