File: xrd-UiO-67/pxrddata/38-7.ASC
3 2760
3.06 2305
3.12 2077
3.18 1926
3.24 1828
3.3 1807
3.36 1774
3.42 1627
3.48 1522
3.54 1588
3.6 1507
3.66 1402
3.72 1398
3.78 1370
3.84 1295
3.9 1231
3.96 1230
4.02 1196
4.08 1161
4.14 1105
4.2 1093
4.26 1023
4.32 1064
4.38 999
4.44 990
4.5 1033
4.56 950
4.62 969
4.68 955
4.74 935
4.8 913
4.86 931
4.92 845
4.98 963
5.04 965
5.1 977
5.16 994
5.22 1075
5.28 1147
5.34 1287
5.4 1514
5.46 1668
5.52 1747
5.58 1651
5.64 1344
5.7 1134
5.76 953
5.82 854
5.88 791
5.94 840
6 792
6.06 710
6.12 723
6.18 677
6.24 692
6.3 694
6.36 643
6.42 649
6.48 689
6.54 634
6.6 640
6.66 607
6.72 638
6.78 604
6.84 566
6.9 637
6.96 600
7.02 624
7.08 645
7.14 570
7.2 571
7.26 569
7.32 596
7.38 573
7.44 589
7.5 518
7.56 581
7.62 553
7.68 548
7.74 544
7.8 578
7.86 585
7.92 559
7.98 549
8.04 563
8.1 535
8.16 554
8.22 566
8.28 569
8.34 544
8.4 538
8.46 538
8.52 513
8.58 559
8.64 547
8.7 515
8.76 524
8.82 534
8.88 530
8.94 540
9 570
9.06 558
9.12 568
9.18 574
9.24 621
9.3 680
9.36 760
9.42 751
9.48 729
9.54 647
9.6 594
9.66 576
9.72 535
9.78 480
9.84 515
9.9 550
9.96 521
10.02 504
10.08 538
10.14 521
10.2 507
10.26 542
10.32 519
10.38 454
10.44 497
10.5 514
10.56 497
10.62 522
10.68 501
10.74 510
10.8 566
10.86 618
10.92 618
10.98 547
11.04 557
11.1 487
11.16 507
11.22 486
11.28 485
11.34 513
11.4 430
11.46 447
11.52 498
11.58 433
11.64 435
11.7 460
11.76 442
11.82 427
11.88 445
11.94 464
12 464
12.06 471
12.12 471
12.18 518
12.24 507
12.3 522
12.36 500
12.42 466
12.48 489
12.54 460
12.6 475
12.66 524
12.72 448
12.78 481
12.84 493
12.9 465
12.96 532
13.02 479
13.08 518
13.14 483
13.2 493
13.26 491
13.32 483
13.38 461
13.44 506
13.5 474
13.56 521
13.62 469
13.68 505
13.74 484
13.8 476
13.86 543
13.92 495
13.98 488
14.04 516
14.1 534
14.16 500
14.22 503
14.28 500
14.34 499
14.4 481
14.46 534
14.52 524
14.58 541
14.64 517
14.7 523
14.76 500
14.82 542
14.88 514
14.94 528
15 531
15.06 529
15.12 535
15.18 560
15.24 537
15.3 522
15.36 519
15.42 511
15.48 572
15.54 566
15.6 558
15.66 534
15.72 558
15.78 559
15.84 566
15.9 585
15.96 588
16.02 561
16.08 580
16.14 573
16.2 628
16.26 601
16.32 588
16.38 614
16.44 617
16.5 639
16.56 600
16.62 614
16.68 657
16.74 617
16.8 621
16.86 645
16.92 736
16.98 732
17.04 788
17.1 759
17.16 731
17.22 681
17.28 705
17.34 733
17.4 650
17.46 695
17.52 657
17.58 666
17.64 714
17.7 690
17.76 692
17.82 703
17.88 683
17.94 694
18 711
18.06 733
18.12 755
18.18 781
18.24 722
18.3 790
18.36 793
18.42 747
18.48 798
18.54 762
18.6 817
18.66 836
18.72 787
18.78 799
18.84 856
18.9 842
18.96 798
19.02 813
19.08 838
19.14 853
19.2 849
19.26 824
19.32 922
19.38 927
19.44 918
19.5 1008
19.56 1006
19.62 913
19.68 979
19.74 916
19.8 950
19.86 880
19.92 937
19.98 909
20 964