File: xrd-UiO-67/pxrddata/38-8.ASC
3 3281
3.06 2678
3.12 2360
3.18 2176
3.24 2185
3.3 2057
3.36 1997
3.42 1895
3.48 1779
3.54 1655
3.6 1661
3.66 1590
3.72 1534
3.78 1539
3.84 1452
3.9 1427
3.96 1425
4.02 1352
4.08 1299
4.14 1270
4.2 1177
4.26 1191
4.32 1152
4.38 1069
4.44 1036
4.5 1004
4.56 1015
4.62 1010
4.68 982
4.74 978
4.8 930
4.86 928
4.92 916
4.98 887
5.04 900
5.1 848
5.16 814
5.22 813
5.28 759
5.34 874
5.4 796
5.46 770
5.52 793
5.58 743
5.64 725
5.7 765
5.76 726
5.82 718
5.88 748
5.94 793
6 729
6.06 766
6.12 709
6.18 754
6.24 713
6.3 672
6.36 731
6.42 721
6.48 742
6.54 732
6.6 692
6.66 698
6.72 705
6.78 696
6.84 682
6.9 687
6.96 716
7.02 667
7.08 672
7.14 677
7.2 648
7.26 656
7.32 640
7.38 684
7.44 626
7.5 644
7.56 651
7.62 636
7.68 677
7.74 682
7.8 658
7.86 662
7.92 722
7.98 654
8.04 681
8.1 627
8.16 625
8.22 680
8.28 667
8.34 630
8.4 653
8.46 663
8.52 666
8.58 655
8.64 660
8.7 666
8.76 637
8.82 661
8.88 689
8.94 720
9 668
9.06 644
9.12 606
9.18 629
9.24 586
9.3 578
9.36 562
9.42 613
9.48 611
9.54 574
9.6 578
9.66 631
9.72 613
9.78 592
9.84 609
9.9 624
9.96 625
10.02 621
10.08 602
10.14 557
10.2 605
10.26 641
10.32 632
10.38 568
10.44 638
10.5 569
10.56 605
10.62 553
10.68 574
10.74 581
10.8 594
10.86 592
10.92 587
10.98 585
11.04 620
11.1 592
11.16 572
11.22 571
11.28 578
11.34 608
11.4 596
11.46 575
11.52 579
11.58 591
11.64 542
11.7 541
11.76 603
11.82 616
11.88 643
11.94 614
12 577
12.06 558
12.12 608
12.18 581
12.24 602
12.3 594
12.36 591
12.42 648
12.48 570
12.54 607
12.6 624
12.66 630
12.72 607
12.78 659
12.84 614
12.9 616
12.96 641
13.02 616
13.08 609
13.14 623
13.2 632
13.26 632
13.32 634
13.38 652
13.44 645
13.5 680
13.56 632
13.62 693
13.68 649
13.74 625
13.8 609
13.86 649
13.92 640
13.98 666
14.04 719
14.1 670
14.16 678
14.22 731
14.28 650
14.34 653
14.4 695
14.46 668
14.52 701
14.58 727
14.64 720
14.7 741
14.76 707
14.82 728
14.88 766
14.94 705
15 692
15.06 733
15.12 706
15.18 776
15.24 766
15.3 756
15.36 721
15.42 787
15.48 761
15.54 758
15.6 781
15.66 735
15.72 807
15.78 818
15.84 755
15.9 802
15.96 809
16.02 810
16.08 843
16.14 785
16.2 792
16.26 853
16.32 836
16.38 872
16.44 840
16.5 893
16.56 878
16.62 929
16.68 944
16.74 889
16.8 971
16.86 1040
16.92 1146
16.98 1382
17.04 1243
17.1 1040
17.16 971
17.22 978
17.28 1018
17.34 963
17.4 989
17.46 1019
17.52 1026
17.58 992
17.64 1033
17.7 1011
17.76 1039
17.82 1045
17.88 1101
17.94 1095
18 1103
18.06 1122
18.12 1084
18.18 1068
18.24 1128
18.3 1110
18.36 1163
18.42 1136
18.48 1119
18.54 1150
18.6 1157
18.66 1197
18.72 1217
18.78 1215
18.84 1186
18.9 1203
18.96 1267
19.02 1221
19.08 1254
19.14 1232
19.2 1329
19.26 1286
19.32 1287
19.38 1318
19.44 1349
19.5 1341
19.56 1379
19.62 1347
19.68 1322
19.74 1410
19.8 1366
19.86 1416
19.92 1389
19.98 1404
20 1411