File: xrd-UiO-67/pxrddata/38-9.ASC
3 3243
3.06 2840
3.12 2474
3.18 2372
3.24 2232
3.3 2140
3.36 1996
3.42 1948
3.48 1909
3.54 1808
3.6 1800
3.66 1654
3.72 1647
3.78 1527
3.84 1501
3.9 1438
3.96 1404
4.02 1392
4.08 1260
4.14 1252
4.2 1228
4.26 1221
4.32 1204
4.38 1197
4.44 1146
4.5 1138
4.56 1047
4.62 1044
4.68 1062
4.74 954
4.8 1055
4.86 929
4.92 988
4.98 893
5.04 911
5.1 927
5.16 879
5.22 792
5.28 823
5.34 835
5.4 812
5.46 767
5.52 753
5.58 761
5.64 725
5.7 761
5.76 767
5.82 758
5.88 700
5.94 749
6 702
6.06 707
6.12 722
6.18 638
6.24 632
6.3 699
6.36 650
6.42 683
6.48 685
6.54 679
6.6 645
6.66 675
6.72 694
6.78 625
6.84 627
6.9 618
6.96 631
7.02 556
7.08 599
7.14 643
7.2 606
7.26 641
7.32 612
7.38 609
7.44 633
7.5 598
7.56 557
7.62 597
7.68 536
7.74 599
7.8 549
7.86 622
7.92 571
7.98 583
8.04 543
8.1 627
8.16 590
8.22 574
8.28 611
8.34 564
8.4 591
8.46 594
8.52 611
8.58 676
8.64 728
8.7 787
8.76 847
8.82 1164
8.88 1451
8.94 2451
9 4134
9.06 1298
9.12 714
9.18 617
9.24 593
9.3 590
9.36 578
9.42 566
9.48 565
9.54 606
9.6 620
9.66 615
9.72 722
9.78 740
9.84 841
9.9 1231
9.96 1417
10.02 552
10.08 529
10.14 516
10.2 512
10.26 485
10.32 512
10.38 454
10.44 459
10.5 494
10.56 492
10.62 476
10.68 458
10.74 475
10.8 500
10.86 486
10.92 475
10.98 489
11.04 482
11.1 467
11.16 502
11.22 492
11.28 447
11.34 440
11.4 472
11.46 463
11.52 452
11.58 491
11.64 434
11.7 427
11.76 452
11.82 478
11.88 429
11.94 496
12 451
12.06 515
12.12 452
12.18 524
12.24 474
12.3 453
12.36 491
12.42 503
12.48 509
12.54 522
12.6 591
12.66 599
12.72 659
12.78 530
12.84 479
12.9 502
12.96 490
13.02 471
13.08 492
13.14 506
13.2 527
13.26 580
13.32 670
13.38 822
13.44 699
13.5 575
13.56 487
13.62 465
13.68 475
13.74 462
13.8 497
13.86 483
13.92 442
13.98 496
14.04 472
14.1 465
14.16 511
14.22 522
14.28 492
14.34 499
14.4 502
14.46 487
14.52 502
14.58 505
14.64 468
14.7 502
14.76 504
14.82 518
14.88 501
14.94 449
15 504
15.06 510
15.12 499
15.18 513
15.24 516
15.3 547
15.36 546
15.42 524
15.48 521
15.54 551
15.6 555
15.66 537
15.72 552
15.78 517
15.84 543
15.9 572
15.96 528
16.02 560
16.08 526
16.14 552
16.2 557
16.26 579
16.32 574
16.38 600
16.44 545
16.5 592
16.56 595
16.62 620
16.68 593
16.74 649
16.8 732
16.86 853
16.92 1056
16.98 1278
17.04 1021
17.1 699
17.16 633
17.22 633
17.28 584
17.34 628
17.4 637
17.46 620
17.52 637
17.58 668
17.64 647
17.7 645
17.76 679
17.82 660
17.88 702
17.94 679
18 769
18.06 691
18.12 668
18.18 691
18.24 658
18.3 693
18.36 677
18.42 714
18.48 781
18.54 755
18.6 707
18.66 736
18.72 710
18.78 706
18.84 695
18.9 712
18.96 740
19.02 737
19.08 739
19.14 773
19.2 780
19.26 762
19.32 727
19.38 815
19.44 782
19.5 778
19.56 796
19.62 812
19.68 795
19.74 820
19.8 866
19.86 900
19.92 1023
19.98 955
20 897