File: xrd-UiO-67/pxrddata/39-11.ASC
3 3102
3.06 2691
3.12 2414
3.18 2308
3.24 2175
3.3 2082
3.36 2020
3.42 1952
3.48 1805
3.54 1795
3.6 1720
3.66 1756
3.72 1645
3.78 1610
3.84 1584
3.9 1549
3.96 1417
4.02 1257
4.08 1292
4.14 1310
4.2 1241
4.26 1172
4.32 1248
4.38 1112
4.44 1155
4.5 1122
4.56 1112
4.62 1111
4.68 1075
4.74 1037
4.8 986
4.86 1006
4.92 951
4.98 918
5.04 900
5.1 887
5.16 849
5.22 860
5.28 875
5.34 866
5.4 893
5.46 797
5.52 790
5.58 818
5.64 813
5.7 826
5.76 778
5.82 773
5.88 806
5.94 753
6 741
6.06 797
6.12 793
6.18 730
6.24 750
6.3 832
6.36 754
6.42 705
6.48 756
6.54 756
6.6 813
6.66 733
6.72 772
6.78 779
6.84 706
6.9 775
6.96 801
7.02 812
7.08 784
7.14 785
7.2 814
7.26 809
7.32 846
7.38 861
7.44 894
7.5 858
7.56 996
7.62 969
7.68 998
7.74 983
7.8 1003
7.86 1069
7.92 1054
7.98 1052
8.04 1091
8.1 1052
8.16 1050
8.22 1006
8.28 1093
8.34 1067
8.4 1059
8.46 1136
8.52 1124
8.58 1246
8.64 1317
8.7 1419
8.76 1522
8.82 1784
8.88 1984
8.94 2170
9 2215
9.06 1986
9.12 1795
9.18 1625
9.24 1417
9.3 1351
9.36 1228
9.42 1181
9.48 1052
9.54 1046
9.6 977
9.66 991
9.72 1094
9.78 1123
9.84 1213
9.9 1362
9.96 1426
10.02 1305
10.08 1201
10.14 1007
10.2 903
10.26 970
10.32 865
10.38 852
10.44 843
10.5 762
10.56 739
10.62 724
10.68 719
10.74 700
10.8 685
10.86 702
10.92 651
10.98 667
11.04 682
11.1 627
11.16 598
11.22 626
11.28 558
11.34 587
11.4 572
11.46 517
11.52 559
11.58 538
11.64 573
11.7 553
11.76 559
11.82 502
11.88 491
11.94 542
12 547
12.06 535
12.12 529
12.18 507
12.24 541
12.3 563
12.36 551
12.42 604
12.48 641
12.54 739
12.6 874
12.66 812
12.72 741
12.78 662
12.84 592
12.9 569
12.96 568
13.02 582
13.08 570
13.14 546
13.2 531
13.26 562
13.32 564
13.38 536
13.44 565
13.5 512
13.56 527
13.62 531
13.68 522
13.74 517
13.8 502
13.86 531
13.92 546
13.98 493
14.04 529
14.1 548
14.16 515
14.22 555
14.28 556
14.34 521
14.4 519
14.46 545
14.52 564
14.58 533
14.64 541
14.7 545
14.76 541
14.82 547
14.88 550
14.94 545
15 556
15.06 589
15.12 560
15.18 575
15.24 591
15.3 563
15.36 595
15.42 563
15.48 564
15.54 561
15.6 555
15.66 532
15.72 607
15.78 596
15.84 557
15.9 579
15.96 575
16.02 627
16.08 588
16.14 515
16.2 569
16.26 619
16.32 589
16.38 616
16.44 631
16.5 626
16.56 653
16.62 624
16.68 595
16.74 618
16.8 676
16.86 742
16.92 911
16.98 1149
17.04 1001
17.1 654
17.16 664
17.22 629
17.28 660
17.34 666
17.4 677
17.46 671
17.52 640
17.58 643
17.64 695
17.7 656
17.76 765
17.82 749
17.88 713
17.94 748
18 731
18.06 768
18.12 731
18.18 763
18.24 737
18.3 774
18.36 779
18.42 793
18.48 788
18.54 855
18.6 771
18.66 816
18.72 870
18.78 792
18.84 812
18.9 820
18.96 800
19.02 809
19.08 848
19.14 822
19.2 826
19.26 837
19.32 829
19.38 827
19.44 832
19.5 896
19.56 918
19.62 892
19.68 929
19.74 890
19.8 915
19.86 974
19.92 978
19.98 1019
20 1007