File: xrd-UiO-67/pxrddata/39-16.ASC
3 2651
3.06 2285
3.12 1973
3.18 1937
3.24 1809
3.3 1776
3.36 1734
3.42 1694
3.48 1578
3.54 1508
3.6 1477
3.66 1392
3.72 1371
3.78 1322
3.84 1251
3.9 1331
3.96 1365
4.02 1301
4.08 1242
4.14 1196
4.2 1215
4.26 1140
4.32 1167
4.38 1141
4.44 1139
4.5 1055
4.56 1112
4.62 1098
4.68 1154
4.74 1126
4.8 1156
4.86 1134
4.92 1208
4.98 1198
5.04 1341
5.1 1353
5.16 1536
5.22 1702
5.28 2019
5.34 2511
5.4 3722
5.46 2523
5.52 1710
5.58 1420
5.64 1251
5.7 1187
5.76 1131
5.82 973
5.88 903
5.94 956
6 850
6.06 885
6.12 874
6.18 863
6.24 827
6.3 826
6.36 804
6.42 818
6.48 788
6.54 777
6.6 784
6.66 754
6.72 788
6.78 748
6.84 709
6.9 739
6.96 753
7.02 745
7.08 699
7.14 734
7.2 673
7.26 723
7.32 694
7.38 693
7.44 713
7.5 727
7.56 724
7.62 705
7.68 664
7.74 723
7.8 699
7.86 662
7.92 723
7.98 666
8.04 676
8.1 654
8.16 690
8.22 688
8.28 636
8.34 659
8.4 656
8.46 672
8.52 635
8.58 630
8.64 625
8.7 618
8.76 635
8.82 656
8.88 662
8.94 679
9 670
9.06 758
9.12 803
9.18 829
9.24 921
9.3 1241
9.36 1300
9.42 826
9.48 689
9.54 688
9.6 644
9.66 644
9.72 648
9.78 619
9.84 666
9.9 601
9.96 644
10.02 592
10.08 622
10.14 643
10.2 670
10.26 630
10.32 581
10.38 655
10.44 576
10.5 629
10.56 651
10.62 665
10.68 776
10.74 855
10.8 898
10.86 720
10.92 683
10.98 625
11.04 631
11.1 563
11.16 606
11.22 578
11.28 587
11.34 599
11.4 633
11.46 636
11.52 620
11.58 582
11.64 593
11.7 583
11.76 557
11.82 612
11.88 551
11.94 587
12 630
12.06 613
12.12 570
12.18 636
12.24 721
12.3 716
12.36 630
12.42 599
12.48 613
12.54 562
12.6 586
12.66 591
12.72 596
12.78 617
12.84 595
12.9 562
12.96 575
13.02 607
13.08 595
13.14 606
13.2 606
13.26 642
13.32 611
13.38 608
13.44 612
13.5 610
13.56 585
13.62 582
13.68 635
13.74 586
13.8 601
13.86 621
13.92 637
13.98 623
14.04 607
14.1 604
14.16 616
14.22 696
14.28 608
14.34 654
14.4 596
14.46 626
14.52 618
14.58 570
14.64 615
14.7 664
14.76 643
14.82 670
14.88 642
14.94 642
15 613
15.06 613
15.12 651
15.18 628
15.24 628
15.3 667
15.36 674
15.42 662
15.48 619
15.54 697
15.6 658
15.66 681
15.72 710
15.78 686
15.84 695
15.9 674
15.96 695
16.02 719
16.08 696
16.14 680
16.2 722
16.26 724
16.32 720
16.38 730
16.44 785
16.5 827
16.56 783
16.62 781
16.68 784
16.74 781
16.8 888
16.86 952
16.92 1148
16.98 1508
17.04 1239
17.1 921
17.16 856
17.22 823
17.28 799
17.34 850
17.4 851
17.46 877
17.52 869
17.58 826
17.64 875
17.7 891
17.76 842
17.82 903
17.88 825
17.94 894
18 864
18.06 855
18.12 863
18.18 876
18.24 871
18.3 962
18.36 901
18.42 910
18.48 920
18.54 930
18.6 924
18.66 964
18.72 934
18.78 1017
18.84 986
18.9 1010
18.96 981
19.02 1030
19.08 1021
19.14 986
19.2 987
19.26 1031
19.32 1100
19.38 1179
19.44 1150
19.5 1158
19.56 1144
19.62 1113
19.68 1083
19.74 1082
19.8 1087
19.86 1146
19.92 1077
19.98 1059
20 1096