File: xrd-UiO-67/pxrddata/39-18.ASC
3 2552
3.06 2091
3.12 1839
3.18 1771
3.24 1680
3.3 1622
3.36 1569
3.42 1499
3.48 1426
3.54 1431
3.6 1324
3.66 1251
3.72 1230
3.78 1260
3.84 1143
3.9 1136
3.96 1166
4.02 1061
4.08 982
4.14 987
4.2 988
4.26 891
4.32 874
4.38 939
4.44 885
4.5 817
4.56 827
4.62 830
4.68 810
4.74 767
4.8 764
4.86 772
4.92 741
4.98 722
5.04 705
5.1 672
5.16 721
5.22 706
5.28 711
5.34 704
5.4 688
5.46 691
5.52 667
5.58 640
5.64 674
5.7 695
5.76 616
5.82 678
5.88 674
5.94 651
6 652
6.06 650
6.12 648
6.18 591
6.24 605
6.3 635
6.36 602
6.42 625
6.48 594
6.54 639
6.6 587
6.66 611
6.72 611
6.78 643
6.84 607
6.9 566
6.96 597
7.02 594
7.08 579
7.14 589
7.2 584
7.26 611
7.32 566
7.38 616
7.44 624
7.5 585
7.56 508
7.62 619
7.68 648
7.74 622
7.8 592
7.86 585
7.92 606
7.98 565
8.04 608
8.1 632
8.16 611
8.22 608
8.28 615
8.34 677
8.4 694
8.46 688
8.52 721
8.58 821
8.64 876
8.7 986
8.76 1247
8.82 1520
8.88 2230
8.94 3439
9 3668
9.06 1483
9.12 946
9.18 805
9.24 867
9.3 845
9.36 767
9.42 719
9.48 724
9.54 731
9.6 762
9.66 830
9.72 907
9.78 1109
9.84 1343
9.9 2008
9.96 2318
10.02 988
10.08 684
10.14 620
10.2 594
10.26 573
10.32 604
10.38 618
10.44 577
10.5 517
10.56 603
10.62 590
10.68 567
10.74 573
10.8 604
10.86 574
10.92 598
10.98 570
11.04 580
11.1 549
11.16 497
11.22 535
11.28 540
11.34 531
11.4 514
11.46 499
11.52 537
11.58 544
11.64 556
11.7 566
11.76 547
11.82 549
11.88 512
11.94 503
12 536
12.06 527
12.12 515
12.18 557
12.24 533
12.3 524
12.36 564
12.42 577
12.48 609
12.54 654
12.6 777
12.66 829
12.72 788
12.78 669
12.84 627
12.9 603
12.96 570
13.02 597
13.08 604
13.14 627
13.2 707
13.26 760
13.32 809
13.38 1042
13.44 938
13.5 676
13.56 584
13.62 570
13.68 594
13.74 585
13.8 546
13.86 602
13.92 562
13.98 565
14.04 584
14.1 599
14.16 562
14.22 582
14.28 579
14.34 562
14.4 554
14.46 584
14.52 591
14.58 584
14.64 600
14.7 597
14.76 609
14.82 597
14.88 559
14.94 578
15 626
15.06 529
15.12 601
15.18 633
15.24 666
15.3 597
15.36 615
15.42 606
15.48 591
15.54 586
15.6 582
15.66 599
15.72 602
15.78 643
15.84 655
15.9 643
15.96 587
16.02 647
16.08 628
16.14 660
16.2 671
16.26 640
16.32 682
16.38 670
16.44 720
16.5 727
16.56 713
16.62 757
16.68 781
16.74 841
16.8 992
16.86 1293
16.92 1916
16.98 2839
17.04 1715
17.1 949
17.16 796
17.22 799
17.28 744
17.34 784
17.4 787
17.46 753
17.52 747
17.58 768
17.64 745
17.7 786
17.76 798
17.82 820
17.88 846
17.94 852
18 826
18.06 862
18.12 847
18.18 896
18.24 861
18.3 889
18.36 862
18.42 874
18.48 867
18.54 906
18.6 866
18.66 880
18.72 823
18.78 872
18.84 851
18.9 877
18.96 830
19.02 902
19.08 922
19.14 902
19.2 874
19.26 905
19.32 931
19.38 911
19.44 945
19.5 961
19.56 929
19.62 970
19.68 997
19.74 1002
19.8 1096
19.86 1233
19.92 1374
19.98 1278
20 1169