File: xrd-UiO-67/pxrddata/39-12.ASC
3 2816
3.06 2289
3.12 2152
3.18 2053
3.24 1900
3.3 1912
3.36 1865
3.42 1845
3.48 1805
3.54 1705
3.6 1719
3.66 1666
3.72 1631
3.78 1643
3.84 1654
3.9 1705
3.96 1702
4.02 1706
4.08 1692
4.14 1724
4.2 1574
4.26 1468
4.32 1490
4.38 1438
4.44 1359
4.5 1421
4.56 1381
4.62 1393
4.68 1431
4.74 1366
4.8 1416
4.86 1378
4.92 1406
4.98 1439
5.04 1487
5.1 1443
5.16 1574
5.22 1628
5.28 1789
5.34 2064
5.4 2384
5.46 1820
5.52 1654
5.58 1657
5.64 1732
5.7 2055
5.76 2282
5.82 1595
5.88 1183
5.94 1154
6 1073
6.06 1034
6.12 1024
6.18 1039
6.24 897
6.3 935
6.36 961
6.42 951
6.48 941
6.54 948
6.6 1022
6.66 1014
6.72 1055
6.78 954
6.84 891
6.9 932
6.96 890
7.02 844
7.08 835
7.14 896
7.2 800
7.26 825
7.32 791
7.38 807
7.44 812
7.5 751
7.56 785
7.62 838
7.68 806
7.74 819
7.8 746
7.86 819
7.92 743
7.98 796
8.04 788
8.1 730
8.16 784
8.22 707
8.28 737
8.34 676
8.4 725
8.46 686
8.52 675
8.58 712
8.64 680
8.7 678
8.76 701
8.82 700
8.88 714
8.94 703
9 650
9.06 728
9.12 753
9.18 820
9.24 915
9.3 1124
9.36 866
9.42 692
9.48 684
9.54 656
9.6 592
9.66 622
9.72 664
9.78 677
9.84 640
9.9 633
9.96 589
10.02 656
10.08 626
10.14 689
10.2 676
10.26 604
10.32 635
10.38 611
10.44 634
10.5 631
10.56 600
10.62 633
10.68 703
10.74 761
10.8 753
10.86 701
10.92 779
10.98 770
11.04 611
11.1 620
11.16 555
11.22 609
11.28 529
11.34 582
11.4 564
11.46 626
11.52 632
11.58 638
11.64 556
11.7 552
11.76 568
11.82 557
11.88 557
11.94 520
12 575
12.06 561
12.12 589
12.18 616
12.24 633
12.3 579
12.36 568
12.42 576
12.48 571
12.54 542
12.6 567
12.66 540
12.72 569
12.78 528
12.84 526
12.9 583
12.96 546
13.02 546
13.08 527
13.14 539
13.2 529
13.26 589
13.32 581
13.38 546
13.44 543
13.5 561
13.56 546
13.62 520
13.68 581
13.74 544
13.8 573
13.86 545
13.92 573
13.98 575
14.04 592
14.1 604
14.16 569
14.22 618
14.28 594
14.34 582
14.4 608
14.46 544
14.52 558
14.58 615
14.64 600
14.7 616
14.76 608
14.82 633
14.88 656
14.94 592
15 618
15.06 592
15.12 570
15.18 581
15.24 622
15.3 620
15.36 607
15.42 571
15.48 608
15.54 601
15.6 607
15.66 585
15.72 568
15.78 585
15.84 606
15.9 634
15.96 642
16.02 610
16.08 667
16.14 611
16.2 626
16.26 615
16.32 634
16.38 622
16.44 632
16.5 623
16.56 599
16.62 632
16.68 697
16.74 686
16.8 613
16.86 627
16.92 663
16.98 649
17.04 625
17.1 668
17.16 714
17.22 675
17.28 697
17.34 664
17.4 696
17.46 698
17.52 778
17.58 684
17.64 659
17.7 700
17.76 741
17.82 695
17.88 713
17.94 698
18 747
18.06 674
18.12 722
18.18 753
18.24 740
18.3 769
18.36 699
18.42 743
18.48 735
18.54 785
18.6 750
18.66 751
18.72 832
18.78 758
18.84 794
18.9 765
18.96 818
19.02 839
19.08 870
19.14 822
19.2 839
19.26 756
19.32 858
19.38 871
19.44 886
19.5 947
19.56 940
19.62 840
19.68 799
19.74 819
19.8 894
19.86 906
19.92 883
19.98 883
20 880