File: xrd-UiO-67/pxrddata/39-10.ASC
3 2687
3.06 2156
3.12 1875
3.18 1849
3.24 1682
3.3 1621
3.36 1659
3.42 1604
3.48 1526
3.54 1494
3.6 1384
3.66 1300
3.72 1394
3.78 1330
3.84 1280
3.9 1213
3.96 1241
4.02 1241
4.08 1178
4.14 1167
4.2 1088
4.26 1075
4.32 1213
4.38 1098
4.44 1169
4.5 1158
4.56 1106
4.62 1128
4.68 1203
4.74 1231
4.8 1285
4.86 1345
4.92 1422
4.98 1646
5.04 1769
5.1 2054
5.16 2409
5.22 3130
5.28 3702
5.34 5198
5.4 8171
5.46 5325
5.52 2834
5.58 2187
5.64 1792
5.7 1591
5.76 1409
5.82 1252
5.88 1219
5.94 1058
6 949
6.06 920
6.12 917
6.18 851
6.24 838
6.3 812
6.36 827
6.42 807
6.48 793
6.54 771
6.6 788
6.66 771
6.72 760
6.78 731
6.84 660
6.9 706
6.96 741
7.02 754
7.08 727
7.14 707
7.2 713
7.26 682
7.32 707
7.38 648
7.44 633
7.5 639
7.56 656
7.62 667
7.68 666
7.74 678
7.8 691
7.86 693
7.92 656
7.98 685
8.04 677
8.1 696
8.16 678
8.22 683
8.28 651
8.34 652
8.4 647
8.46 658
8.52 649
8.58 662
8.64 689
8.7 666
8.76 670
8.82 616
8.88 664
8.94 721
9 776
9.06 817
9.12 949
9.18 1051
9.24 1395
9.3 2056
9.36 2340
9.42 1053
9.48 842
9.54 768
9.6 725
9.66 699
9.72 662
9.78 679
9.84 669
9.9 619
9.96 669
10.02 629
10.08 689
10.14 645
10.2 664
10.26 660
10.32 652
10.38 671
10.44 746
10.5 718
10.56 784
10.62 859
10.68 1057
10.74 1378
10.8 1578
10.86 989
10.92 875
10.98 830
11.04 725
11.1 687
11.16 635
11.22 588
11.28 670
11.34 643
11.4 598
11.46 584
11.52 624
11.58 631
11.64 615
11.7 626
11.76 602
11.82 609
11.88 609
11.94 601
12 629
12.06 619
12.12 647
12.18 746
12.24 778
12.3 789
12.36 706
12.42 647
12.48 625
12.54 659
12.6 605
12.66 648
12.72 637
12.78 610
12.84 649
12.9 625
12.96 655
13.02 667
13.08 638
13.14 605
13.2 671
13.26 682
13.32 601
13.38 665
13.44 670
13.5 653
13.56 657
13.62 640
13.68 639
13.74 678
13.8 638
13.86 678
13.92 648
13.98 648
14.04 642
14.1 631
14.16 676
14.22 727
14.28 720
14.34 738
14.4 738
14.46 721
14.52 661
14.58 685
14.64 667
14.7 703
14.76 660
14.82 688
14.88 682
14.94 662
15 694
15.06 694
15.12 707
15.18 669
15.24 724
15.3 693
15.36 688
15.42 714
15.48 711
15.54 753
15.6 717
15.66 700
15.72 717
15.78 713
15.84 700
15.9 742
15.96 741
16.02 764
16.08 749
16.14 813
16.2 748
16.26 770
16.32 796
16.38 818
16.44 765
16.5 779
16.56 783
16.62 787
16.68 794
16.74 796
16.8 819
16.86 827
16.92 867
16.98 872
17.04 842
17.1 875
17.16 856
17.22 939
17.28 847
17.34 951
17.4 881
17.46 922
17.52 926
17.58 891
17.64 884
17.7 874
17.76 937
17.82 931
17.88 902
17.94 919
18 979
18.06 885
18.12 955
18.18 912
18.24 902
18.3 923
18.36 967
18.42 997
18.48 986
18.54 949
18.6 1057
18.66 1074
18.72 1090
18.78 1009
18.84 1000
18.9 992
18.96 1045
19.02 1124
19.08 1079
19.14 1090
19.2 1047
19.26 1102
19.32 1152
19.38 1254
19.44 1478
19.5 1392
19.56 1269
19.62 1219
19.68 1132
19.74 1129
19.8 1209
19.86 1190
19.92 1142
19.98 1166
20 1154