File: xrd-UiO-67/pxrddata/39-17.ASC
3 2837
3.06 2344
3.12 2126
3.18 1943
3.24 1864
3.3 1797
3.36 1711
3.42 1803
3.48 1634
3.54 1631
3.6 1533
3.66 1579
3.72 1481
3.78 1428
3.84 1327
3.9 1318
3.96 1321
4.02 1264
4.08 1180
4.14 1202
4.2 1147
4.26 1088
4.32 1094
4.38 1055
4.44 1076
4.5 1043
4.56 1006
4.62 1022
4.68 938
4.74 890
4.8 955
4.86 852
4.92 849
4.98 961
5.04 880
5.1 890
5.16 885
5.22 835
5.28 802
5.34 841
5.4 815
5.46 798
5.52 730
5.58 762
5.64 772
5.7 796
5.76 742
5.82 777
5.88 762
5.94 739
6 729
6.06 703
6.12 707
6.18 677
6.24 711
6.3 694
6.36 690
6.42 687
6.48 731
6.54 698
6.6 729
6.66 681
6.72 674
6.78 732
6.84 703
6.9 680
6.96 666
7.02 673
7.08 658
7.14 672
7.2 669
7.26 719
7.32 633
7.38 640
7.44 703
7.5 691
7.56 708
7.62 679
7.68 642
7.74 631
7.8 697
7.86 666
7.92 676
7.98 686
8.04 630
8.1 645
8.16 661
8.22 681
8.28 653
8.34 704
8.4 680
8.46 653
8.52 735
8.58 691
8.64 757
8.7 722
8.76 795
8.82 768
8.88 855
8.94 939
9 932
9.06 882
9.12 872
9.18 816
9.24 837
9.3 760
9.36 787
9.42 738
9.48 721
9.54 700
9.6 772
9.66 764
9.72 733
9.78 832
9.84 842
9.9 888
9.96 878
10.02 866
10.08 796
10.14 735
10.2 719
10.26 663
10.32 686
10.38 659
10.44 634
10.5 596
10.56 626
10.62 607
10.68 672
10.74 621
10.8 585
10.86 578
10.92 635
10.98 585
11.04 578
11.1 571
11.16 549
11.22 546
11.28 557
11.34 563
11.4 571
11.46 546
11.52 579
11.58 568
11.64 577
11.7 550
11.76 533
11.82 537
11.88 570
11.94 535
12 560
12.06 541
12.12 528
12.18 549
12.24 539
12.3 588
12.36 549
12.42 569
12.48 626
12.54 640
12.6 689
12.66 726
12.72 667
12.78 615
12.84 603
12.9 586
12.96 628
13.02 587
13.08 561
13.14 564
13.2 581
13.26 575
13.32 582
13.38 604
13.44 586
13.5 600
13.56 572
13.62 570
13.68 562
13.74 588
13.8 531
13.86 581
13.92 579
13.98 585
14.04 620
14.1 563
14.16 604
14.22 564
14.28 605
14.34 621
14.4 635
14.46 569
14.52 638
14.58 626
14.64 631
14.7 588
14.76 595
14.82 622
14.88 604
14.94 592
15 639
15.06 586
15.12 570
15.18 658
15.24 660
15.3 587
15.36 645
15.42 668
15.48 648
15.54 628
15.6 658
15.66 627
15.72 619
15.78 680
15.84 632
15.9 668
15.96 688
16.02 658
16.08 711
16.14 713
16.2 705
16.26 683
16.32 663
16.38 700
16.44 726
16.5 707
16.56 772
16.62 779
16.68 753
16.74 807
16.8 852
16.86 958
16.92 1174
16.98 1338
17.04 1062
17.1 898
17.16 819
17.22 774
17.28 786
17.34 728
17.4 810
17.46 792
17.52 825
17.58 812
17.64 799
17.7 848
17.76 848
17.82 924
17.88 874
17.94 911
18 850
18.06 863
18.12 876
18.18 880
18.24 874
18.3 899
18.36 954
18.42 920
18.48 957
18.54 940
18.6 970
18.66 877
18.72 1001
18.78 975
18.84 946
18.9 946
18.96 955
19.02 1004
19.08 946
19.14 1000
19.2 984
19.26 1017
19.32 982
19.38 995
19.44 967
19.5 1041
19.56 1033
19.62 1057
19.68 1048
19.74 1112
19.8 1124
19.86 1120
19.92 1098
19.98 1126
20 1127