File: xrd-UiO-67/pxrddata/39-21.ASC
3 3708
3.06 3221
3.12 2847
3.18 2670
3.24 2621
3.3 2534
3.36 2403
3.42 2298
3.48 2098
3.54 1997
3.6 1985
3.66 1986
3.72 1907
3.78 1858
3.84 1682
3.9 1686
3.96 1637
4.02 1567
4.08 1454
4.14 1480
4.2 1416
4.26 1351
4.32 1365
4.38 1315
4.44 1252
4.5 1262
4.56 1175
4.62 1213
4.68 1177
4.74 1136
4.8 1186
4.86 1132
4.92 1192
4.98 1166
5.04 1136
5.1 1231
5.16 1255
5.22 1381
5.28 1521
5.34 1766
5.4 2332
5.46 2099
5.52 1362
5.58 1192
5.64 1166
5.7 1079
5.76 972
5.82 985
5.88 985
5.94 922
6 859
6.06 895
6.12 872
6.18 860
6.24 799
6.3 789
6.36 849
6.42 849
6.48 807
6.54 820
6.6 794
6.66 772
6.72 740
6.78 793
6.84 791
6.9 763
6.96 768
7.02 783
7.08 770
7.14 748
7.2 780
7.26 776
7.32 734
7.38 729
7.44 736
7.5 695
7.56 701
7.62 715
7.68 710
7.74 719
7.8 734
7.86 769
7.92 725
7.98 710
8.04 692
8.1 693
8.16 718
8.22 711
8.28 699
8.34 704
8.4 649
8.46 665
8.52 701
8.58 718
8.64 687
8.7 691
8.76 677
8.82 686
8.88 699
8.94 746
9 779
9.06 737
9.12 771
9.18 725
9.24 802
9.3 857
9.36 1004
9.42 806
9.48 722
9.54 669
9.6 697
9.66 697
9.72 642
9.78 636
9.84 656
9.9 630
9.96 706
10.02 692
10.08 626
10.14 657
10.2 657
10.26 654
10.32 647
10.38 670
10.44 651
10.5 642
10.56 660
10.62 634
10.68 733
10.74 737
10.8 786
10.86 713
10.92 715
10.98 618
11.04 631
11.1 625
11.16 668
11.22 630
11.28 576
11.34 567
11.4 606
11.46 604
11.52 605
11.58 607
11.64 601
11.7 631
11.76 577
11.82 626
11.88 644
11.94 587
12 607
12.06 636
12.12 663
12.18 619
12.24 646
12.3 630
12.36 628
12.42 617
12.48 650
12.54 633
12.6 594
12.66 642
12.72 649
12.78 658
12.84 644
12.9 630
12.96 653
13.02 639
13.08 650
13.14 633
13.2 656
13.26 654
13.32 675
13.38 655
13.44 682
13.5 640
13.56 688
13.62 632
13.68 692
13.74 643
13.8 640
13.86 636
13.92 645
13.98 705
14.04 665
14.1 709
14.16 692
14.22 714
14.28 752
14.34 721
14.4 725
14.46 666
14.52 789
14.58 730
14.64 706
14.7 689
14.76 702
14.82 744
14.88 687
14.94 704
15 699
15.06 773
15.12 707
15.18 760
15.24 794
15.3 745
15.36 754
15.42 804
15.48 793
15.54 718
15.6 758
15.66 782
15.72 760
15.78 796
15.84 795
15.9 834
15.96 754
16.02 792
16.08 864
16.14 846
16.2 851
16.26 799
16.32 829
16.38 894
16.44 889
16.5 861
16.56 896
16.62 913
16.68 911
16.74 919
16.8 955
16.86 1025
16.92 1130
16.98 1342
17.04 1332
17.1 1009
17.16 963
17.22 920
17.28 954
17.34 977
17.4 946
17.46 1048
17.52 961
17.58 1015
17.64 1012
17.7 1015
17.76 1043
17.82 1034
17.88 1044
17.94 1086
18 1061
18.06 1056
18.12 1078
18.18 1076
18.24 1050
18.3 1061
18.36 1076
18.42 1204
18.48 1143
18.54 1032
18.6 1135
18.66 1163
18.72 1204
18.78 1183
18.84 1194
18.9 1182
18.96 1201
19.02 1229
19.08 1185
19.14 1223
19.2 1227
19.26 1353
19.32 1258
19.38 1317
19.44 1391
19.5 1302
19.56 1335
19.62 1288
19.68 1339
19.74 1317
19.8 1324
19.86 1334
19.92 1371
19.98 1462
20 1417