File: xrd-UiO-67/pxrddata/39-23.ASC
3 2759
3.06 2167
3.12 1993
3.18 1828
3.24 1775
3.3 1800
3.36 1645
3.42 1656
3.48 1573
3.54 1501
3.6 1430
3.66 1404
3.72 1416
3.78 1367
3.84 1332
3.9 1305
3.96 1254
4.02 1318
4.08 1235
4.14 1235
4.2 1159
4.26 1095
4.32 1099
4.38 1074
4.44 1067
4.5 1054
4.56 1056
4.62 1042
4.68 1012
4.74 988
4.8 946
4.86 912
4.92 927
4.98 883
5.04 898
5.1 921
5.16 908
5.22 880
5.28 839
5.34 876
5.4 884
5.46 856
5.52 848
5.58 913
5.64 842
5.7 859
5.76 850
5.82 875
5.88 869
5.94 855
6 843
6.06 892
6.12 859
6.18 851
6.24 829
6.3 853
6.36 836
6.42 805
6.48 771
6.54 855
6.6 816
6.66 842
6.72 801
6.78 752
6.84 810
6.9 763
6.96 779
7.02 725
7.08 776
7.14 806
7.2 760
7.26 729
7.32 752
7.38 777
7.44 739
7.5 745
7.56 775
7.62 781
7.68 774
7.74 754
7.8 798
7.86 805
7.92 815
7.98 840
8.04 775
8.1 747
8.16 756
8.22 754
8.28 763
8.34 820
8.4 793
8.46 789
8.52 807
8.58 773
8.64 763
8.7 761
8.76 771
8.82 759
8.88 798
8.94 838
9 841
9.06 862
9.12 812
9.18 769
9.24 739
9.3 741
9.36 773
9.42 769
9.48 769
9.54 735
9.6 752
9.66 702
9.72 715
9.78 735
9.84 702
9.9 723
9.96 844
10.02 805
10.08 809
10.14 684
10.2 709
10.26 658
10.32 640
10.38 746
10.44 704
10.5 731
10.56 715
10.62 713
10.68 673
10.74 719
10.8 673
10.86 727
10.92 703
10.98 711
11.04 710
11.1 656
11.16 672
11.22 660
11.28 720
11.34 651
11.4 692
11.46 713
11.52 652
11.58 614
11.64 660
11.7 706
11.76 692
11.82 612
11.88 705
11.94 694
12 756
12.06 681
12.12 711
12.18 695
12.24 743
12.3 677
12.36 744
12.42 755
12.48 783
12.54 727
12.6 715
12.66 751
12.72 761
12.78 741
12.84 695
12.9 754
12.96 702
13.02 807
13.08 738
13.14 797
13.2 705
13.26 751
13.32 753
13.38 754
13.44 770
13.5 880
13.56 750
13.62 766
13.68 767
13.74 769
13.8 757
13.86 725
13.92 823
13.98 775
14.04 814
14.1 773
14.16 793
14.22 799
14.28 777
14.34 766
14.4 767
14.46 811
14.52 869
14.58 830
14.64 827
14.7 868
14.76 867
14.82 833
14.88 839
14.94 878
15 869
15.06 888
15.12 895
15.18 878
15.24 905
15.3 867
15.36 889
15.42 940
15.48 918
15.54 889
15.6 942
15.66 910
15.72 933
15.78 959
15.84 936
15.9 935
15.96 946
16.02 933
16.08 1017
16.14 1035
16.2 1040
16.26 1028
16.32 1011
16.38 1028
16.44 1032
16.5 1083
16.56 1078
16.62 1106
16.68 1113
16.74 1132
16.8 1159
16.86 1203
16.92 1242
16.98 1441
17.04 1545
17.1 1358
17.16 1184
17.22 1237
17.28 1208
17.34 1174
17.4 1250
17.46 1261
17.52 1183
17.58 1261
17.64 1239
17.7 1245
17.76 1248
17.82 1343
17.88 1250
17.94 1318
18 1309
18.06 1391
18.12 1308
18.18 1359
18.24 1280
18.3 1393
18.36 1435
18.42 1422
18.48 1483
18.54 1487
18.6 1489
18.66 1453
18.72 1462
18.78 1539
18.84 1540
18.9 1524
18.96 1584
19.02 1536
19.08 1530
19.14 1613
19.2 1630
19.26 1591
19.32 1604
19.38 1701
19.44 1662
19.5 1632
19.56 1733
19.62 1736
19.68 1681
19.74 1801
19.8 1694
19.86 1821
19.92 1746
19.98 1780
20 1829