File: xrd-UiO-67/pxrddata/39-2.ASC
3 2763
3.06 2460
3.12 2222
3.18 2128
3.24 2062
3.3 2150
3.36 2075
3.42 1997
3.48 2073
3.54 1991
3.6 2013
3.66 1953
3.72 1997
3.78 1984
3.84 1996
3.9 2020
3.96 2052
4.02 1974
4.08 2010
4.14 1941
4.2 1986
4.26 2009
4.32 2066
4.38 2042
4.44 2057
4.5 2021
4.56 2145
4.62 2093
4.68 2139
4.74 2183
4.8 2129
4.86 2101
4.92 2174
4.98 2146
5.04 2135
5.1 2212
5.16 2251
5.22 2391
5.28 2474
5.34 2575
5.4 3052
5.46 2351
5.52 1981
5.58 1885
5.64 1825
5.7 1759
5.76 1635
5.82 1664
5.88 1564
5.94 1529
6 1538
6.06 1478
6.12 1434
6.18 1391
6.24 1289
6.3 1261
6.36 1290
6.42 1285
6.48 1172
6.54 1200
6.6 1161
6.66 1184
6.72 1129
6.78 1161
6.84 1120
6.9 1120
6.96 1116
7.02 1051
7.08 973
7.14 1085
7.2 1014
7.26 1000
7.32 1039
7.38 983
7.44 989
7.5 993
7.56 1020
7.62 1049
7.68 1119
7.74 1016
7.8 1049
7.86 1013
7.92 1002
7.98 950
8.04 958
8.1 894
8.16 922
8.22 906
8.28 937
8.34 925
8.4 887
8.46 887
8.52 927
8.58 864
8.64 844
8.7 895
8.76 864
8.82 827
8.88 928
8.94 870
9 901
9.06 893
9.12 932
9.18 939
9.24 944
9.3 1035
9.36 1061
9.42 862
9.48 841
9.54 831
9.6 795
9.66 768
9.72 802
9.78 807
9.84 777
9.9 784
9.96 749
10.02 739
10.08 777
10.14 752
10.2 737
10.26 739
10.32 697
10.38 775
10.44 745
10.5 742
10.56 792
10.62 769
10.68 801
10.74 814
10.8 859
10.86 789
10.92 769
10.98 694
11.04 684
11.1 719
11.16 683
11.22 708
11.28 669
11.34 639
11.4 664
11.46 682
11.52 667
11.58 639
11.64 634
11.7 706
11.76 681
11.82 681
11.88 672
11.94 629
12 614
12.06 665
12.12 645
12.18 697
12.24 672
12.3 743
12.36 773
12.42 726
12.48 678
12.54 711
12.6 673
12.66 660
12.72 679
12.78 660
12.84 678
12.9 635
12.96 695
13.02 681
13.08 655
13.14 633
13.2 692
13.26 716
13.32 664
13.38 683
13.44 693
13.5 665
13.56 659
13.62 677
13.68 618
13.74 610
13.8 660
13.86 663
13.92 623
13.98 650
14.04 674
14.1 674
14.16 691
14.22 688
14.28 640
14.34 630
14.4 670
14.46 648
14.52 604
14.58 633
14.64 632
14.7 634
14.76 683
14.82 655
14.88 652
14.94 667
15 629
15.06 617
15.12 613
15.18 655
15.24 616
15.3 659
15.36 636
15.42 658
15.48 652
15.54 653
15.6 649
15.66 661
15.72 642
15.78 600
15.84 648
15.9 690
15.96 703
16.02 650
16.08 671
16.14 683
16.2 622
16.26 655
16.32 660
16.38 641
16.44 718
16.5 684
16.56 700
16.62 687
16.68 697
16.74 685
16.8 717
16.86 673
16.92 770
16.98 758
17.04 705
17.1 692
17.16 729
17.22 743
17.28 770
17.34 746
17.4 733
17.46 748
17.52 743
17.58 789
17.64 731
17.7 767
17.76 714
17.82 744
17.88 802
17.94 790
18 783
18.06 810
18.12 806
18.18 827
18.24 759
18.3 825
18.36 809
18.42 780
18.48 787
18.54 759
18.6 825
18.66 817
18.72 795
18.78 824
18.84 842
18.9 833
18.96 838
19.02 844
19.08 871
19.14 842
19.2 823
19.26 863
19.32 868
19.38 891
19.44 866
19.5 962
19.56 973
19.62 933
19.68 894
19.74 904
19.8 941
19.86 918
19.92 866
19.98 897
20 956