File: xrd-UiO-67/pxrddata/39-3.ASC
3 2796
3.06 2427
3.12 2219
3.18 2101
3.24 2015
3.3 2048
3.36 1935
3.42 1907
3.48 1826
3.54 1744
3.6 1788
3.66 1724
3.72 1704
3.78 1618
3.84 1704
3.9 1704
3.96 1659
4.02 1706
4.08 1795
4.14 1679
4.2 1610
4.26 1471
4.32 1419
4.38 1398
4.44 1394
4.5 1336
4.56 1326
4.62 1364
4.68 1353
4.74 1336
4.8 1361
4.86 1420
4.92 1423
4.98 1504
5.04 1508
5.1 1631
5.16 1834
5.22 2062
5.28 2377
5.34 2783
5.4 3418
5.46 4106
5.52 2664
5.58 2404
5.64 2425
5.7 2803
5.76 3388
5.82 3541
5.88 1972
5.94 1309
6 1110
6.06 1040
6.12 979
6.18 943
6.24 951
6.3 953
6.36 864
6.42 907
6.48 928
6.54 921
6.6 954
6.66 884
6.72 963
6.78 1004
6.84 927
6.9 882
6.96 803
7.02 790
7.08 756
7.14 740
7.2 659
7.26 735
7.32 704
7.38 692
7.44 718
7.5 731
7.56 687
7.62 702
7.68 653
7.74 700
7.8 716
7.86 671
7.92 695
7.98 669
8.04 724
8.1 691
8.16 671
8.22 703
8.28 670
8.34 638
8.4 646
8.46 689
8.52 665
8.58 631
8.64 603
8.7 611
8.76 640
8.82 656
8.88 661
8.94 669
9 690
9.06 752
9.12 815
9.18 896
9.24 992
9.3 1274
9.36 1789
9.42 1260
9.48 734
9.54 718
9.6 624
9.66 610
9.72 625
9.78 622
9.84 655
9.9 675
9.96 628
10.02 633
10.08 716
10.14 752
10.2 826
10.26 766
10.32 619
10.38 579
10.44 600
10.5 635
10.56 646
10.62 676
10.68 733
10.74 832
10.8 1008
10.86 905
10.92 959
10.98 1032
11.04 912
11.1 599
11.16 624
11.22 561
11.28 588
11.34 606
11.4 652
11.46 671
11.52 737
11.58 717
11.64 611
11.7 610
11.76 554
11.82 549
11.88 551
11.94 539
12 562
12.06 602
12.12 572
12.18 556
12.24 603
12.3 605
12.36 576
12.42 596
12.48 557
12.54 553
12.6 505
12.66 544
12.72 481
12.78 548
12.84 540
12.9 518
12.96 520
13.02 566
13.08 513
13.14 493
13.2 535
13.26 568
13.32 531
13.38 594
13.44 547
13.5 562
13.56 561
13.62 506
13.68 559
13.74 503
13.8 538
13.86 495
13.92 529
13.98 534
14.04 533
14.1 590
14.16 529
14.22 603
14.28 598
14.34 638
14.4 549
14.46 625
14.52 571
14.58 522
14.64 522
14.7 563
14.76 610
14.82 588
14.88 611
14.94 579
15 566
15.06 571
15.12 574
15.18 584
15.24 553
15.3 577
15.36 569
15.42 617
15.48 585
15.54 566
15.6 619
15.66 602
15.72 584
15.78 571
15.84 589
15.9 582
15.96 610
16.02 558
16.08 590
16.14 588
16.2 605
16.26 579
16.32 659
16.38 714
16.44 633
16.5 637
16.56 622
16.62 606
16.68 642
16.74 643
16.8 640
16.86 631
16.92 649
16.98 617
17.04 690
17.1 661
17.16 640
17.22 657
17.28 672
17.34 721
17.4 688
17.46 692
17.52 702
17.58 708
17.64 696
17.7 769
17.76 684
17.82 696
17.88 713
17.94 702
18 733
18.06 718
18.12 705
18.18 726
18.24 742
18.3 696
18.36 732
18.42 695
18.48 740
18.54 720
18.6 750
18.66 776
18.72 849
18.78 809
18.84 812
18.9 796
18.96 853
19.02 847
19.08 898
19.14 961
19.2 952
19.26 828
19.32 851
19.38 885
19.44 998
19.5 1046
19.56 1113
19.62 1083
19.68 806
19.74 873
19.8 858
19.86 929
19.92 956
19.98 872
20 873