File: xrd-UiO-67/pxrddata/39-4.ASC
3 2659
3.06 2203
3.12 1988
3.18 1797
3.24 1729
3.3 1714
3.36 1720
3.42 1623
3.48 1628
3.54 1557
3.6 1490
3.66 1488
3.72 1491
3.78 1378
3.84 1383
3.9 1398
3.96 1218
4.02 1292
4.08 1241
4.14 1194
4.2 1176
4.26 1213
4.32 1131
4.38 1180
4.44 1107
4.5 1121
4.56 1071
4.62 1095
4.68 1118
4.74 1072
4.8 1149
4.86 1188
4.92 1227
4.98 1232
5.04 1292
5.1 1517
5.16 1589
5.22 1889
5.28 2218
5.34 2793
5.4 4168
5.46 2652
5.52 1810
5.58 1521
5.64 1310
5.7 1230
5.76 1178
5.82 1100
5.88 968
5.94 925
6 950
6.06 867
6.12 837
6.18 826
6.24 826
6.3 791
6.36 798
6.42 808
6.48 781
6.54 797
6.6 769
6.66 766
6.72 756
6.78 800
6.84 732
6.9 781
6.96 813
7.02 777
7.08 835
7.14 790
7.2 825
7.26 830
7.32 874
7.38 901
7.44 997
7.5 1057
7.56 1234
7.62 1201
7.68 1238
7.74 1379
7.8 1408
7.86 1311
7.92 1300
7.98 1256
8.04 1135
8.1 1057
8.16 997
8.22 960
8.28 876
8.34 891
8.4 866
8.46 808
8.52 752
8.58 834
8.64 827
8.7 811
8.76 813
8.82 898
8.88 947
8.94 982
9 1034
9.06 1021
9.12 1104
9.18 1103
9.24 1233
9.3 1447
9.36 1381
9.42 887
9.48 811
9.54 728
9.6 679
9.66 728
9.72 687
9.78 666
9.84 699
9.9 744
9.96 727
10.02 785
10.08 679
10.14 721
10.2 757
10.26 774
10.32 747
10.38 807
10.44 766
10.5 792
10.56 747
10.62 808
10.68 860
10.74 1058
10.8 1035
10.86 880
10.92 806
10.98 747
11.04 789
11.1 664
11.16 627
11.22 605
11.28 632
11.34 608
11.4 600
11.46 576
11.52 602
11.58 591
11.64 567
11.7 573
11.76 599
11.82 561
11.88 562
11.94 580
12 601
12.06 660
12.12 599
12.18 682
12.24 696
12.3 730
12.36 814
12.42 699
12.48 706
12.54 691
12.6 730
12.66 678
12.72 623
12.78 624
12.84 639
12.9 614
12.96 591
13.02 588
13.08 596
13.14 577
13.2 597
13.26 621
13.32 587
13.38 595
13.44 562
13.5 578
13.56 641
13.62 580
13.68 589
13.74 530
13.8 582
13.86 552
13.92 529
13.98 576
14.04 575
14.1 591
14.16 599
14.22 635
14.28 593
14.34 577
14.4 577
14.46 519
14.52 557
14.58 612
14.64 532
14.7 587
14.76 583
14.82 603
14.88 555
14.94 586
15 619
15.06 582
15.12 584
15.18 584
15.24 557
15.3 598
15.36 598
15.42 631
15.48 616
15.54 594
15.6 575
15.66 580
15.72 608
15.78 551
15.84 599
15.9 681
15.96 589
16.02 597
16.08 577
16.14 637
16.2 628
16.26 627
16.32 650
16.38 658
16.44 640
16.5 676
16.56 649
16.62 638
16.68 647
16.74 640
16.8 663
16.86 680
16.92 673
16.98 779
17.04 715
17.1 670
17.16 703
17.22 743
17.28 686
17.34 711
17.4 711
17.46 701
17.52 689
17.58 716
17.64 719
17.7 724
17.76 754
17.82 766
17.88 752
17.94 773
18 771
18.06 793
18.12 763
18.18 765
18.24 799
18.3 748
18.36 771
18.42 804
18.48 846
18.54 805
18.6 837
18.66 882
18.72 835
18.78 859
18.84 874
18.9 877
18.96 884
19.02 870
19.08 830
19.14 805
19.2 814
19.26 870
19.32 913
19.38 979
19.44 1068
19.5 1055
19.56 986
19.62 977
19.68 920
19.74 978
19.8 958
19.86 986
19.92 902
19.98 957
20 1002