File: xrd-UiO-67/pxrddata/39-7.ASC
3 2707
3.06 2370
3.12 2106
3.18 1927
3.24 1944
3.3 1802
3.36 1824
3.42 1794
3.48 1684
3.54 1678
3.6 1643
3.66 1530
3.72 1525
3.78 1391
3.84 1403
3.9 1403
3.96 1384
4.02 1342
4.08 1355
4.14 1265
4.2 1356
4.26 1306
4.32 1210
4.38 1234
4.44 1243
4.5 1263
4.56 1230
4.62 1142
4.68 1153
4.74 1145
4.8 1139
4.86 1152
4.92 1130
4.98 1165
5.04 1102
5.1 1157
5.16 1136
5.22 1206
5.28 1192
5.34 1284
5.4 1429
5.46 1535
5.52 1228
5.58 1141
5.64 988
5.7 946
5.76 1007
5.82 922
5.88 924
5.94 909
6 889
6.06 863
6.12 820
6.18 858
6.24 805
6.3 860
6.36 848
6.42 847
6.48 865
6.54 809
6.6 754
6.66 790
6.72 748
6.78 778
6.84 725
6.9 732
6.96 712
7.02 710
7.08 734
7.14 804
7.2 735
7.26 706
7.32 714
7.38 705
7.44 713
7.5 740
7.56 728
7.62 689
7.68 729
7.74 726
7.8 666
7.86 695
7.92 722
7.98 678
8.04 693
8.1 699
8.16 656
8.22 669
8.28 610
8.34 656
8.4 615
8.46 700
8.52 678
8.58 606
8.64 626
8.7 674
8.76 687
8.82 602
8.88 664
8.94 623
9 659
9.06 623
9.12 653
9.18 631
9.24 664
9.3 753
9.36 814
9.42 708
9.48 623
9.54 651
9.6 586
9.66 567
9.72 582
9.78 602
9.84 611
9.9 517
9.96 567
10.02 579
10.08 560
10.14 556
10.2 567
10.26 555
10.32 553
10.38 556
10.44 606
10.5 552
10.56 543
10.62 552
10.68 602
10.74 646
10.8 682
10.86 675
10.92 647
10.98 579
11.04 630
11.1 539
11.16 575
11.22 580
11.28 574
11.34 522
11.4 552
11.46 570
11.52 555
11.58 583
11.64 557
11.7 589
11.76 558
11.82 567
11.88 556
11.94 533
12 546
12.06 543
12.12 562
12.18 549
12.24 552
12.3 615
12.36 565
12.42 580
12.48 601
12.54 510
12.6 545
12.66 603
12.72 586
12.78 579
12.84 573
12.9 595
12.96 551
13.02 562
13.08 554
13.14 583
13.2 564
13.26 591
13.32 574
13.38 589
13.44 600
13.5 591
13.56 535
13.62 569
13.68 604
13.74 596
13.8 596
13.86 586
13.92 590
13.98 603
14.04 576
14.1 586
14.16 600
14.22 594
14.28 647
14.34 633
14.4 570
14.46 595
14.52 626
14.58 575
14.64 613
14.7 636
14.76 601
14.82 592
14.88 618
14.94 663
15 626
15.06 658
15.12 628
15.18 653
15.24 585
15.3 652
15.36 667
15.42 613
15.48 720
15.54 668
15.6 695
15.66 669
15.72 641
15.78 672
15.84 702
15.9 749
15.96 666
16.02 722
16.08 691
16.14 703
16.2 712
16.26 688
16.32 759
16.38 730
16.44 716
16.5 687
16.56 762
16.62 747
16.68 720
16.74 784
16.8 761
16.86 752
16.92 801
16.98 781
17.04 807
17.1 817
17.16 774
17.22 772
17.28 807
17.34 789
17.4 826
17.46 826
17.52 819
17.58 840
17.64 808
17.7 794
17.76 863
17.82 882
17.88 839
17.94 822
18 818
18.06 886
18.12 872
18.18 933
18.24 900
18.3 914
18.36 871
18.42 924
18.48 910
18.54 919
18.6 919
18.66 940
18.72 973
18.78 998
18.84 957
18.9 974
18.96 991
19.02 1009
19.08 1006
19.14 988
19.2 1000
19.26 993
19.32 1012
19.38 1062
19.44 996
19.5 1070
19.56 1111
19.62 1038
19.68 1054
19.74 1061
19.8 1129
19.86 1054
19.92 1045
19.98 1147
20 1088