File: xrd-UiO-67/pxrddata/39-8.ASC
3 2455
3.06 2092
3.12 1762
3.18 1797
3.24 1698
3.3 1581
3.36 1605
3.42 1562
3.48 1467
3.54 1432
3.6 1343
3.66 1428
3.72 1353
3.78 1295
3.84 1296
3.9 1286
3.96 1199
4.02 1242
4.08 1134
4.14 1158
4.2 1140
4.26 1166
4.32 1091
4.38 1117
4.44 1091
4.5 1063
4.56 1057
4.62 1047
4.68 1109
4.74 1089
4.8 1041
4.86 1070
4.92 1144
4.98 1167
5.04 1125
5.1 1223
5.16 1328
5.22 1459
5.28 1704
5.34 2003
5.4 2697
5.46 2609
5.52 1685
5.58 1498
5.64 1475
5.7 1484
5.76 1424
5.82 1264
5.88 1071
5.94 990
6 922
6.06 825
6.12 820
6.18 855
6.24 856
6.3 826
6.36 799
6.42 777
6.48 776
6.54 792
6.6 800
6.66 797
6.72 780
6.78 830
6.84 725
6.9 784
6.96 742
7.02 741
7.08 743
7.14 760
7.2 732
7.26 710
7.32 695
7.38 677
7.44 704
7.5 656
7.56 714
7.62 722
7.68 662
7.74 715
7.8 671
7.86 697
7.92 748
7.98 695
8.04 702
8.1 722
8.16 680
8.22 685
8.28 674
8.34 674
8.4 678
8.46 665
8.52 692
8.58 635
8.64 675
8.7 657
8.76 670
8.82 669
8.88 634
8.94 659
9 632
9.06 752
9.12 731
9.18 783
9.24 913
9.3 1123
9.36 1473
9.42 815
9.48 683
9.54 690
9.6 644
9.66 639
9.72 611
9.78 649
9.84 634
9.9 653
9.96 653
10.02 647
10.08 676
10.14 618
10.2 647
10.26 636
10.32 624
10.38 612
10.44 598
10.5 711
10.56 653
10.62 682
10.68 774
10.74 867
10.8 990
10.86 780
10.92 777
10.98 735
11.04 642
11.1 616
11.16 594
11.22 581
11.28 582
11.34 641
11.4 587
11.46 593
11.52 618
11.58 597
11.64 573
11.7 609
11.76 580
11.82 570
11.88 560
11.94 627
12 582
12.06 569
12.12 646
12.18 590
12.24 608
12.3 660
12.36 607
12.42 580
12.48 576
12.54 583
12.6 612
12.66 601
12.72 629
12.78 609
12.84 552
12.9 625
12.96 605
13.02 604
13.08 608
13.14 631
13.2 606
13.26 615
13.32 644
13.38 655
13.44 626
13.5 578
13.56 660
13.62 597
13.68 644
13.74 626
13.8 603
13.86 638
13.92 590
13.98 581
14.04 688
14.1 638
14.16 625
14.22 647
14.28 690
14.34 700
14.4 663
14.46 699
14.52 645
14.58 633
14.64 671
14.7 687
14.76 695
14.82 648
14.88 731
14.94 666
15 716
15.06 672
15.12 654
15.18 651
15.24 705
15.3 688
15.36 703
15.42 701
15.48 722
15.54 725
15.6 680
15.66 729
15.72 713
15.78 726
15.84 746
15.9 739
15.96 695
16.02 697
16.08 750
16.14 760
16.2 794
16.26 753
16.32 771
16.38 757
16.44 788
16.5 768
16.56 753
16.62 795
16.68 773
16.74 782
16.8 816
16.86 816
16.92 844
16.98 773
17.04 834
17.1 834
17.16 857
17.22 821
17.28 881
17.34 847
17.4 875
17.46 794
17.52 893
17.58 892
17.64 854
17.7 921
17.76 916
17.82 869
17.88 883
17.94 900
18 928
18.06 876
18.12 921
18.18 931
18.24 924
18.3 959
18.36 969
18.42 933
18.48 989
18.54 994
18.6 974
18.66 982
18.72 1102
18.78 1056
18.84 1016
18.9 1029
18.96 1037
19.02 1066
19.08 1057
19.14 1120
19.2 1045
19.26 1055
19.32 1125
19.38 1160
19.44 1218
19.5 1165
19.56 1198
19.62 1099
19.68 1115
19.74 1155
19.8 1095
19.86 1150
19.92 1128
19.98 1118
20 1157