File: xrd-UiO-67/pxrddata/39-9.ASC
3 3169
3.06 2576
3.12 2366
3.18 2295
3.24 2183
3.3 2105
3.36 2116
3.42 1992
3.48 1911
3.54 1864
3.6 1791
3.66 1819
3.72 1720
3.78 1692
3.84 1588
3.9 1649
3.96 1533
4.02 1502
4.08 1511
4.14 1438
4.2 1395
4.26 1376
4.32 1321
4.38 1316
4.44 1325
4.5 1310
4.56 1286
4.62 1278
4.68 1262
4.74 1328
4.8 1353
4.86 1388
4.92 1401
4.98 1463
5.04 1571
5.1 1703
5.16 1893
5.22 2172
5.28 2570
5.34 3381
5.4 5192
5.46 3115
5.52 1988
5.58 1615
5.64 1448
5.7 1289
5.76 1178
5.82 1110
5.88 1112
5.94 983
6 972
6.06 900
6.12 939
6.18 860
6.24 921
6.3 884
6.36 887
6.42 887
6.48 810
6.54 799
6.6 816
6.66 864
6.72 847
6.78 846
6.84 808
6.9 796
6.96 854
7.02 811
7.08 811
7.14 849
7.2 871
7.26 862
7.32 887
7.38 887
7.44 964
7.5 968
7.56 1070
7.62 1100
7.68 1150
7.74 1175
7.8 1230
7.86 1194
7.92 1275
7.98 1234
8.04 1160
8.1 1065
8.16 1026
8.22 1032
8.28 944
8.34 918
8.4 882
8.46 916
8.52 896
8.58 888
8.64 873
8.7 889
8.76 985
8.82 1047
8.88 1242
8.94 1451
9 1451
9.06 1313
9.12 1268
9.18 1264
9.24 1286
9.3 1663
9.36 1711
9.42 1049
9.48 937
9.54 853
9.6 791
9.66 778
9.72 835
9.78 761
9.84 816
9.9 847
9.96 913
10.02 829
10.08 840
10.14 788
10.2 781
10.26 792
10.32 814
10.38 823
10.44 831
10.5 820
10.56 824
10.62 882
10.68 918
10.74 1155
10.8 1200
10.86 978
10.92 825
10.98 800
11.04 726
11.1 691
11.16 696
11.22 653
11.28 644
11.34 600
11.4 614
11.46 656
11.52 601
11.58 572
11.64 591
11.7 644
11.76 623
11.82 606
11.88 595
11.94 631
12 633
12.06 582
12.12 652
12.18 761
12.24 847
12.3 889
12.36 841
12.42 821
12.48 695
12.54 781
12.6 841
12.66 740
12.72 651
12.78 649
12.84 644
12.9 674
12.96 620
13.02 667
13.08 640
13.14 659
13.2 620
13.26 681
13.32 639
13.38 692
13.44 656
13.5 649
13.56 630
13.62 645
13.68 619
13.74 584
13.8 659
13.86 603
13.92 624
13.98 578
14.04 602
14.1 634
14.16 679
14.22 653
14.28 681
14.34 656
14.4 627
14.46 656
14.52 584
14.58 618
14.64 626
14.7 614
14.76 664
14.82 626
14.88 562
14.94 606
15 648
15.06 618
15.12 619
15.18 615
15.24 621
15.3 625
15.36 592
15.42 613
15.48 628
15.54 620
15.6 652
15.66 663
15.72 670
15.78 666
15.84 652
15.9 684
15.96 641
16.02 630
16.08 703
16.14 666
16.2 670
16.26 629
16.32 694
16.38 655
16.44 718
16.5 718
16.56 725
16.62 730
16.68 720
16.74 698
16.8 700
16.86 705
16.92 760
16.98 762
17.04 782
17.1 748
17.16 790
17.22 762
17.28 772
17.34 786
17.4 794
17.46 788
17.52 780
17.58 826
17.64 753
17.7 750
17.76 816
17.82 844
17.88 795
17.94 809
18 818
18.06 816
18.12 809
18.18 869
18.24 885
18.3 888
18.36 864
18.42 868
18.48 919
18.54 912
18.6 874
18.66 980
18.72 915
18.78 954
18.84 923
18.9 942
18.96 938
19.02 961
19.08 946
19.14 1008
19.2 987
19.26 1007
19.32 983
19.38 1033
19.44 1158
19.5 1177
19.56 1082
19.62 1108
19.68 1029
19.74 1020
19.8 1049
19.86 1015
19.92 1082
19.98 1091
20 1091