File: xrd-UiO-67/pxrddata/4-31.ASC
3 1954
3.1 1441
3.2 1293
3.3 1231
3.4 1208
3.5 1172
3.6 1073
3.7 1042
3.8 1050
3.9 990
4 982
4.1 877
4.2 933
4.3 943
4.4 925
4.5 974
4.6 997
4.7 985
4.8 948
4.9 987
5 1077
5.1 1116
5.2 1255
5.3 1378
5.4 1572
5.5 1968
5.6 2549
5.7 4379
5.8 3253
5.9 1709
6 1728
6.1 1392
6.2 1185
6.3 1358
6.4 1541
6.5 1957
6.6 3167
6.7 1803
6.8 1388
6.9 1326
7 1230
7.1 1175
7.2 1178
7.3 1180
7.4 1120
7.5 1075
7.6 1034
7.7 948
7.8 834
7.9 828
8 840
8.1 791
8.2 788
8.3 829
8.4 821
8.5 821
8.6 769
8.7 786
8.8 787
8.9 885
9 889
9.1 1056
9.2 1316
9.3 2011
9.4 1955
9.5 992
9.6 979
9.7 796
9.8 763
9.9 777
10 726
10.1 763
10.2 706
10.3 761
10.4 786
10.5 812
10.6 876
10.7 1005
10.8 1212
10.9 1831
11 2042
11.1 967
11.2 1027
11.3 1102
11.4 1400
11.5 1243
11.6 849
11.7 875
11.8 845
11.9 860
12 801
12.1 810
12.2 764
12.3 774
12.4 725
12.5 771
12.6 767
12.7 784
12.8 763
12.9 803
13 820
13.1 840
13.2 1009
13.3 853
13.4 817
13.5 784
13.6 809
13.7 828
13.8 852
13.9 865
14 853
14.1 841
14.2 844
14.3 985
14.4 1086
14.5 884
14.6 838
14.7 936
14.8 846
14.9 836
15 850
15.1 889
15.2 862
15.3 944
15.4 932
15.5 985
15.6 923
15.7 932
15.8 955
15.9 944
16 995
16.1 992
16.2 971
16.3 1050
16.4 992
16.5 991
16.6 1002
16.7 1035
16.8 1140
16.9 1093
17 1162
17.1 1186
17.2 1345
17.3 1191
17.4 1203
17.5 1172
17.6 1196
17.7 1168
17.8 1193
17.9 1213
18 1305
18.1 1265
18.2 1266
18.3 1257
18.4 1305
18.5 1366
18.6 1328
18.7 1343
18.8 1438
18.9 1371
19 1361
19.1 1368
19.2 1550
19.3 1547
19.4 1604
19.5 1882
19.6 2112
19.7 1803
19.8 2216
19.9 2195
20 1617
20.1 1543
20.2 1575
20.3 1494
20.4 1551
20.5 1663
20.6 1568
20.7 1601
20.8 1603
20.9 1546
21 1602
21.1 1586
21.2 1541
21.3 1548
21.4 1654
21.5 1547
21.6 1715
21.7 1755
21.8 1718
21.9 1590
22 1625
22.1 1487
22.2 1551
22.3 1502
22.4 1528
22.5 1513
22.6 1461
22.7 1459
22.8 1428
22.9 1534
23 1493
23.1 1458
23.2 1468
23.3 1440
23.4 1413
23.5 1501
23.6 1664
23.7 2032
23.8 1554
23.9 1515
24 1336
24.1 1316
24.2 1252
24.3 1327
24.4 1260
24.5 1254
24.6 1234
24.7 1237
24.8 1568
24.9 1408
25 1228
25.1 1196
25.2 1145
25.3 1214
25.4 1410
25.5 1856
25.6 1260
25.7 1150
25.8 1111
25.9 1097
26 1062
26.1 1025
26.2 1078
26.3 1049
26.4 1014
26.5 1251
26.6 1356
26.7 1041
26.8 976
26.9 958
27 995
27.1 928
27.2 1022
27.3 1148
27.4 1385
27.5 1121
27.6 917
27.7 903
27.8 914
27.9 893
28 902
28.1 919
28.2 997
28.3 888
28.4 818
28.5 909
28.6 846
28.7 896
28.8 1204
28.9 1022
29 1198
29.1 949
29.2 818
29.3 799
29.4 809
29.5 753
29.6 735
29.7 758
29.8 750
29.9 781
30 807