File: xrd-UiO-67/pxrddata/4-32.ASC
3 2365
3.1 1688
3.2 1570
3.3 1491
3.4 1455
3.5 1574
3.6 1368
3.7 1219
3.8 1123
3.9 1125
4 1036
4.1 1044
4.2 1042
4.3 976
4.4 902
4.5 954
4.6 950
4.7 925
4.8 915
4.9 1010
5 1012
5.1 1128
5.2 1239
5.3 1472
5.4 1836
5.5 2013
5.6 2576
5.7 3954
5.8 3348
5.9 1264
6 1070
6.1 1030
6.2 1015
6.3 1157
6.4 1377
6.5 1702
6.6 2645
6.7 1468
6.8 1019
6.9 1086
7 1181
7.1 1111
7.2 1217
7.3 1370
7.4 1637
7.5 1047
7.6 914
7.7 875
7.8 864
7.9 827
8 848
8.1 841
8.2 878
8.3 872
8.4 858
8.5 894
8.6 901
8.7 842
8.8 811
8.9 914
9 1007
9.1 1036
9.2 1286
9.3 1896
9.4 1944
9.5 919
9.6 856
9.7 876
9.8 863
9.9 888
10 895
10.1 903
10.2 881
10.3 864
10.4 894
10.5 893
10.6 923
10.7 1067
10.8 1258
10.9 1558
11 2117
11.1 994
11.2 1011
11.3 1057
11.4 1268
11.5 1398
11.6 960
11.7 974
11.8 979
11.9 1024
12 1009
12.1 1004
12.2 971
12.3 941
12.4 953
12.5 974
12.6 1022
12.7 940
12.8 1015
12.9 1004
13 1048
13.1 1026
13.2 1168
13.3 1083
13.4 1034
13.5 1054
13.6 1036
13.7 1097
13.8 1121
13.9 1135
14 1085
14.1 1187
14.2 1158
14.3 1142
14.4 1319
14.5 1221
14.6 1209
14.7 1165
14.8 1192
14.9 1195
15 1219
15.1 1256
15.2 1276
15.3 1266
15.4 1303
15.5 1295
15.6 1333
15.7 1312
15.8 1353
15.9 1357
16 1398
16.1 1376
16.2 1445
16.3 1369
16.4 1430
16.5 1386
16.6 1507
16.7 1532
16.8 1565
16.9 1603
17 1634
17.1 1665
17.2 1740
17.3 1768
17.4 1691
17.5 1674
17.6 1769
17.7 1786
17.8 1675
17.9 1831
18 1866
18.1 1794
18.2 1831
18.3 1774
18.4 1835
18.5 1927
18.6 1989
18.7 2002
18.8 2038
18.9 2057
19 2048
19.1 2103
19.2 2081
19.3 2115
19.4 2238
19.5 2293
19.6 2615
19.7 2217
19.8 2338
19.9 2790
20 2217
20.1 2161
20.2 2178
20.3 2195
20.4 2148
20.5 2205
20.6 2256
20.7 2179
20.8 2257
20.9 2253
21 2244
21.1 2231
21.2 2151
21.3 2199
21.4 2218
21.5 2200
21.6 2202
21.7 2328
21.8 2382
21.9 2183
22 2175
22.1 2208
22.2 2223
22.3 2218
22.4 2240
22.5 2080
22.6 2095
22.7 2173
22.8 2119
22.9 2031
23 2198
23.1 2104
23.2 2006
23.3 1966
23.4 2020
23.5 2099
23.6 2163
23.7 2537
23.8 2039
23.9 2128
24 1979
24.1 1916
24.2 1944
24.3 1945
24.4 1892
24.5 1889
24.6 1906
24.7 1867
24.8 2023
24.9 1925
25 1814
25.1 1890
25.2 1765
25.3 1841
25.4 1838
25.5 2161
25.6 1895
25.7 1791
25.8 1772
25.9 1762
26 1739
26.1 1710
26.2 1691
26.3 1654
26.4 1691
26.5 1656
26.6 1837
26.7 1642
26.8 1638
26.9 1549
27 1673
27.1 1655
27.2 1633
27.3 1629
27.4 1832
27.5 1650
27.6 1544
27.7 1484
27.8 1507
27.9 1498
28 1526
28.1 1478
28.2 1490
28.3 1417
28.4 1513
28.5 1468
28.6 1405
28.7 1402
28.8 1567
28.9 1457
29 1610
29.1 1444
29.2 1398
29.3 1388
29.4 1407
29.5 1292
29.6 1353
29.7 1309
29.8 1245
29.9 1287
30 1230