File: xrd-UiO-67/pxrddata/4-33.ASC
3 2171
3.1 1565
3.2 1406
3.3 1342
3.4 1282
3.5 1258
3.6 1166
3.7 1231
3.8 1119
3.9 1093
4 1048
4.1 1033
4.2 1032
4.3 951
4.4 1003
4.5 994
4.6 1003
4.7 923
4.8 943
4.9 937
5 931
5.1 1007
5.2 983
5.3 970
5.4 1050
5.5 1001
5.6 1097
5.7 1215
5.8 1477
5.9 1058
6 1115
6.1 961
6.2 991
6.3 1014
6.4 1107
6.5 1100
6.6 1242
6.7 1232
6.8 1070
6.9 1023
7 1049
7.1 1056
7.2 1060
7.3 1037
7.4 1107
7.5 1109
7.6 1081
7.7 1065
7.8 1054
7.9 1084
8 1076
8.1 1060
8.2 1073
8.3 1060
8.4 1097
8.5 1146
8.6 1088
8.7 1165
8.8 1165
8.9 1140
9 1114
9.1 1178
9.2 1202
9.3 1286
9.4 1574
9.5 1133
9.6 1151
9.7 1133
9.8 1138
9.9 1153
10 1174
10.1 1114
10.2 1269
10.3 1195
10.4 1203
10.5 1227
10.6 1205
10.7 1315
10.8 1295
10.9 1430
11 1716
11.1 1235
11.2 1301
11.3 1272
11.4 1376
11.5 1572
11.6 1185
11.7 1333
11.8 1250
11.9 1296
12 1344
12.1 1368
12.2 1324
12.3 1306
12.4 1369
12.5 1391
12.6 1322
12.7 1385
12.8 1406
12.9 1429
13 1449
13.1 1443
13.2 1576
13.3 1578
13.4 1529
13.5 1447
13.6 1548
13.7 1584
13.8 1524
13.9 1546
14 1571
14.1 1615
14.2 1677
14.3 1727
14.4 1749
14.5 1708
14.6 1768
14.7 1669
14.8 1761
14.9 1810
15 1798
15.1 1845
15.2 1864
15.3 1854
15.4 1945
15.5 1966
15.6 2027
15.7 2028
15.8 1923
15.9 2063
16 2122
16.1 2110
16.2 2099
16.3 2132
16.4 2235
16.5 2219
16.6 2250
16.7 2377
16.8 2305
16.9 2383
17 2401
17.1 2391
17.2 2628
17.3 2631
17.4 2580
17.5 2650
17.6 2675
17.7 2629
17.8 2760
17.9 2719
18 2819
18.1 2927
18.2 2829
18.3 2972
18.4 3041
18.5 2985
18.6 3077
18.7 3194
18.8 3066
18.9 3229
19 3105
19.1 3274
19.2 3308
19.3 3258
19.4 3323
19.5 3465
19.6 3660
19.7 3574
19.8 3569
19.9 4040
20 3489
20.1 3511
20.2 3406
20.3 3457
20.4 3523
20.5 3578
20.6 3523
20.7 3552
20.8 3609
20.9 3522
21 3464
21.1 3521
21.2 3483
21.3 3507
21.4 3387
21.5 3403
21.6 3489
21.7 3568
21.8 3525
21.9 3375
22 3423
22.1 3330
22.2 3300
22.3 3243
22.4 3316
22.5 3251
22.6 3273
22.7 3135
22.8 3210
22.9 3162
23 3214
23.1 3078
23.2 3203
23.3 2997
23.4 3074
23.5 3090
23.6 2940
23.7 3387
23.8 3050
23.9 2895
24 2940
24.1 2842
24.2 2653
24.3 2761
24.4 2812
24.5 2808
24.6 2691
24.7 2680
24.8 2723
24.9 2810
25 2608
25.1 2574
25.2 2468
25.3 2497
25.4 2541
25.5 2847
25.6 2736
25.7 2421
25.8 2373
25.9 2364
26 2299
26.1 2259
26.2 2280
26.3 2317
26.4 2250
26.5 2306
26.6 2541
26.7 2235
26.8 2249
26.9 2103
27 2109
27.1 2126
27.2 2080
27.3 2156
27.4 2271
27.5 2196
27.6 1986
27.7 1956
27.8 1958
27.9 1912
28 1884
28.1 1841
28.2 2007
28.3 2045
28.4 1842
28.5 1863
28.6 1785
28.7 1853
28.8 2047
28.9 2010
29 2024
29.1 1922
29.2 1795
29.3 1721
29.4 1665
29.5 1715
29.6 1660
29.7 1714
29.8 1648
29.9 1676
30 1587