File: xrd-UiO-67/pxrddata/4-34.ASC
3 1923
3.1 1400
3.2 1372
3.3 1369
3.4 1194
3.5 1230
3.6 1187
3.7 1175
3.8 1104
3.9 1086
4 1149
4.1 1045
4.2 1015
4.3 1014
4.4 1001
4.5 998
4.6 994
4.7 957
4.8 995
4.9 933
5 948
5.1 922
5.2 922
5.3 935
5.4 980
5.5 957
5.6 1041
5.7 1079
5.8 1030
5.9 1696
6 1048
6.1 1085
6.2 1041
6.3 1032
6.4 1054
6.5 1048
6.6 1055
6.7 1065
6.8 1053
6.9 1083
7 1041
7.1 1105
7.2 1053
7.3 1049
7.4 1088
7.5 1140
7.6 1115
7.7 1125
7.8 1145
7.9 1059
8 1099
8.1 1106
8.2 1064
8.3 1147
8.4 1064
8.5 1085
8.6 1069
8.7 1095
8.8 1106
8.9 1114
9 1076
9.1 1142
9.2 1132
9.3 1124
9.4 1103
9.5 1148
9.6 1092
9.7 1167
9.8 1076
9.9 1135
10 1101
10.1 1156
10.2 1156
10.3 1126
10.4 1134
10.5 1100
10.6 1102
10.7 1121
10.8 1152
10.9 1172
11 1176
11.1 1144
11.2 1174
11.3 1183
11.4 1186
11.5 1284
11.6 1211
11.7 1204
11.8 1242
11.9 1215
12 1219
12.1 1279
12.2 1272
12.3 1199
12.4 1239
12.5 1271
12.6 1287
12.7 1353
12.8 1301
12.9 1256
13 1333
13.1 1301
13.2 1344
13.3 1388
13.4 1404
13.5 1312
13.6 1409
13.7 1410
13.8 1425
13.9 1455
14 1488
14.1 1501
14.2 1461
14.3 1553
14.4 1507
14.5 1632
14.6 1574
14.7 1605
14.8 1625
14.9 1581
15 1621
15.1 1636
15.2 1701
15.3 1684
15.4 1716
15.5 1765
15.6 1803
15.7 1834
15.8 1863
15.9 1829
16 1782
16.1 1921
16.2 1893
16.3 1901
16.4 1977
16.5 1942
16.6 2003
16.7 2038
16.8 2103
16.9 2195
17 2288
17.1 2225
17.2 2267
17.3 2300
17.4 2247
17.5 2363
17.6 2420
17.7 2357
17.8 2483
17.9 2455
18 2503
18.1 2599
18.2 2532
18.3 2647
18.4 2596
18.5 2709
18.6 2665
18.7 2704
18.8 2712
18.9 2866
19 2850
19.1 2932
19.2 2845
19.3 2933
19.4 3021
19.5 3075
19.6 3245
19.7 3071
19.8 3047
19.9 3050
20 3111
20.1 3114
20.2 3174
20.3 3185
20.4 3065
20.5 3294
20.6 3194
20.7 3167
20.8 3210
20.9 3190
21 3186
21.1 3130
21.2 3324
21.3 3129
21.4 3091
21.5 3089
21.6 3133
21.7 3186
21.8 3079
21.9 3097
22 3102
22.1 3038
22.2 2907
22.3 3048
22.4 3035
22.5 2968
22.6 2902
22.7 2981
22.8 2969
22.9 2788
23 2958
23.1 2810
23.2 2815
23.3 2752
23.4 2753
23.5 2785
23.6 2777
23.7 2824
23.8 2689
23.9 2659
24 2649
24.1 2572
24.2 2540
24.3 2492
24.4 2597
24.5 2429
24.6 2382
24.7 2436
24.8 2368
24.9 2381
25 2349
25.1 2337
25.2 2385
25.3 2382
25.4 2307
25.5 2323
25.6 2285
25.7 2194
25.8 2197
25.9 2201
26 2107
26.1 2041
26.2 1944
26.3 2101
26.4 2053
26.5 2092
26.6 2127
26.7 2039
26.8 2024
26.9 2067
27 2051
27.1 2035
27.2 1950
27.3 1920
27.4 1916
27.5 1912
27.6 1860
27.7 1859
27.8 1788
27.9 1766
28 1814
28.1 1769
28.2 1822
28.3 1840
28.4 1700
28.5 1731
28.6 1735
28.7 1756
28.8 1815
28.9 1809
29 1741
29.1 1692
29.2 1645
29.3 1629
29.4 1620
29.5 1560
29.6 1556
29.7 1529
29.8 1588
29.9 1527
30 1504