File: xrd-UiO-67/pxrddata/4-35.ASC
3 2148
3.1 1681
3.2 1518
3.3 1557
3.4 1440
3.5 1370
3.6 1265
3.7 1285
3.8 1240
3.9 1251
4 1157
4.1 1149
4.2 1137
4.3 1079
4.4 1090
4.5 1028
4.6 1073
4.7 1039
4.8 985
4.9 1045
5 996
5.1 962
5.2 973
5.3 1017
5.4 987
5.5 986
5.6 991
5.7 991
5.8 994
5.9 1046
6 1016
6.1 949
6.2 1026
6.3 1014
6.4 973
6.5 1013
6.6 1018
6.7 1099
6.8 1050
6.9 1031
7 1009
7.1 1005
7.2 1107
7.3 1047
7.4 1094
7.5 1090
7.6 1031
7.7 1086
7.8 1046
7.9 1023
8 1038
8.1 1027
8.2 1041
8.3 1071
8.4 1073
8.5 1082
8.6 1084
8.7 1061
8.8 1119
8.9 1073
9 1108
9.1 1118
9.2 1083
9.3 1098
9.4 1070
9.5 1126
9.6 1111
9.7 1037
9.8 1085
9.9 1105
10 1126
10.1 1054
10.2 1108
10.3 1097
10.4 1067
10.5 1083
10.6 1164
10.7 1154
10.8 1145
10.9 1099
11 1162
11.1 1149
11.2 1126
11.3 1143
11.4 1145
11.5 1252
11.6 1117
11.7 1127
11.8 1085
11.9 1202
12 1187
12.1 1234
12.2 1191
12.3 1210
12.4 1219
12.5 1219
12.6 1280
12.7 1215
12.8 1275
12.9 1267
13 1279
13.1 1324
13.2 1321
13.3 1356
13.4 1266
13.5 1335
13.6 1365
13.7 1260
13.8 1331
13.9 1348
14 1446
14.1 1387
14.2 1400
14.3 1487
14.4 1502
14.5 1461
14.6 1468
14.7 1510
14.8 1561
14.9 1499
15 1531
15.1 1624
15.2 1600
15.3 1651
15.4 1688
15.5 1676
15.6 1706
15.7 1767
15.8 1729
15.9 1816
16 1797
16.1 1862
16.2 1921
16.3 1917
16.4 1949
16.5 1981
16.6 2046
16.7 2189
16.8 2431
16.9 3236
17 6523
17.1 9640
17.2 2492
17.3 2344
17.4 2305
17.5 2255
17.6 2391
17.7 2386
17.8 2297
17.9 2392
18 2478
18.1 2447
18.2 2491
18.3 2573
18.4 2619
18.5 2660
18.6 2693
18.7 2743
18.8 2737
18.9 2848
19 2814
19.1 2846
19.2 2830
19.3 2907
19.4 2947
19.5 2927
19.6 3019
19.7 2920
19.8 3041
19.9 3066
20 3005
20.1 3032
20.2 3064
20.3 3130
20.4 3134
20.5 3097
20.6 3139
20.7 3212
20.8 3164
20.9 3224
21 3126
21.1 3213
21.2 3123
21.3 3226
21.4 3203
21.5 3141
21.6 3156
21.7 3052
21.8 3086
21.9 3130
22 3187
22.1 3026
22.2 3024
22.3 3091
22.4 3091
22.5 2918
22.6 2980
22.7 3046
22.8 2915
22.9 2883
23 2884
23.1 2870
23.2 2895
23.3 2854
23.4 2797
23.5 2818
23.6 2789
23.7 2760
23.8 2690
23.9 2694
24 2649
24.1 2646
24.2 2687
24.3 2728
24.4 2961
24.5 3140
24.6 3202
24.7 2854
24.8 2661
24.9 2550
25 2584
25.1 2726
25.2 3392
25.3 4205
25.4 3374
25.5 2688
25.6 2360
25.7 2302
25.8 2308
25.9 2293
26 2260
26.1 2265
26.2 2166
26.3 2090
26.4 2267
26.5 2316
26.6 2347
26.7 2753
26.8 2978
26.9 3503
27 3072
27.1 2407
27.2 2118
27.3 2079
27.4 2073
27.5 2036
27.6 1978
27.7 2014
27.8 1959
27.9 1888
28 1933
28.1 1961
28.2 2009
28.3 1902
28.4 1824
28.5 1867
28.6 1909
28.7 1895
28.8 1797
28.9 1874
29 1859
29.1 1915
29.2 2033
29.3 1989
29.4 1809
29.5 1749
29.6 1678
29.7 1712
29.8 1702
29.9 1643
30 1682