File: xrd-UiO-67/pxrddata/4-36.ASC
3 1718
3.1 1386
3.2 1238
3.3 1189
3.4 1168
3.5 1164
3.6 1089
3.7 1081
3.8 1115
3.9 1123
4 1189
4.1 1334
4.2 1306
4.3 1090
4.4 963
4.5 940
4.6 950
4.7 967
4.8 1026
4.9 1069
5 1296
5.1 1417
5.2 1680
5.3 2308
5.4 3426
5.5 4552
5.6 3055
5.7 3669
5.8 5254
5.9 3754
6 1214
6.1 931
6.2 958
6.3 899
6.4 908
6.5 960
6.6 923
6.7 1099
6.8 1248
6.9 1072
7 794
7.1 823
7.2 746
7.3 782
7.4 771
7.5 774
7.6 740
7.7 765
7.8 714
7.9 783
8 838
8.1 826
8.2 825
8.3 788
8.4 738
8.5 706
8.6 757
8.7 755
8.8 783
8.9 835
9 902
9.1 1022
9.2 1341
9.3 2005
9.4 2338
9.5 1127
9.6 825
9.7 792
9.8 872
9.9 775
10 862
10.1 961
10.2 1209
10.3 989
10.4 837
10.5 831
10.6 899
10.7 1047
10.8 1363
10.9 1452
11 1721
11.1 1093
11.2 812
11.3 794
11.4 908
11.5 1064
11.6 1025
11.7 849
11.8 796
11.9 793
12 787
12.1 856
12.2 897
12.3 952
12.4 815
12.5 828
12.6 824
12.7 749
12.8 798
12.9 799
13 816
13.1 838
13.2 837
13.3 849
13.4 877
13.5 849
13.6 883
13.7 849
13.8 818
13.9 799
14 843
14.1 882
14.2 871
14.3 941
14.4 937
14.5 922
14.6 889
14.7 865
14.8 985
14.9 997
15 972
15.1 956
15.2 1014
15.3 1010
15.4 1015
15.5 976
15.6 933
15.7 984
15.8 1034
15.9 1044
16 1079
16.1 1043
16.2 1140
16.3 1198
16.4 1128
16.5 1147
16.6 1127
16.7 1107
16.8 1098
16.9 1157
17 1217
17.1 1257
17.2 1219
17.3 1330
17.4 1295
17.5 1261
17.6 1279
17.7 1295
17.8 1372
17.9 1419
18 1398
18.1 1312
18.2 1394
18.3 1336
18.4 1428
18.5 1400
18.6 1450
18.7 1516
18.8 1593
18.9 1575
19 1604
19.1 1715
19.2 1763
19.3 1639
19.4 1653
19.5 1856
19.6 2014
19.7 1721
19.8 1621
19.9 1852
20 1690
20.1 1711
20.2 1819
20.3 1857
20.4 1714
20.5 1739
20.6 1701
20.7 1774
20.8 1772
20.9 1709
21 1698
21.1 1756
21.2 1833
21.3 1763
21.4 1668
21.5 1801
21.6 1758
21.7 1796
21.8 1773
21.9 1778
22 1902
22.1 1822
22.2 1709
22.3 1758
22.4 1701
22.5 1789
22.6 1746
22.7 1655
22.8 1691
22.9 1747
23 1682
23.1 1836
23.2 1791
23.3 1700
23.4 1557
23.5 1651
23.6 1856
23.7 1785
23.8 1591
23.9 1607
24 1596
24.1 1523
24.2 1505
24.3 1464
24.4 1439
24.5 1603
24.6 1665
24.7 1641
24.8 1826
24.9 1650
25 1535
25.1 1658
25.2 1604
25.3 1450
25.4 1525
25.5 1549
25.6 1616
25.7 1483
25.8 1401
25.9 1445
26 1377
26.1 1341
26.2 1380
26.3 1431
26.4 1362
26.5 1322
26.6 1308
26.7 1316
26.8 1409
26.9 1459
27 1473
27.1 1568
27.2 1629
27.3 1424
27.4 1390
27.5 1286
27.6 1221
27.7 1388
27.8 1376
27.9 1309
28 1262
28.1 1270
28.2 1359
28.3 1459
28.4 1350
28.5 1442
28.6 1327
28.7 1457
28.8 1519
28.9 1339
29 1265
29.1 1193
29.2 1234
29.3 1166
29.4 1155
29.5 1164
29.6 1056
29.7 1135
29.8 1266
29.9 1378
30 1147