File: xrd-UiO-67/pxrddata/4-37.ASC
3 2166
3.1 1657
3.2 1524
3.3 1472
3.4 1409
3.5 1419
3.6 1337
3.7 1313
3.8 1254
3.9 1260
4 1337
4.1 1306
4.2 1283
4.3 1198
4.4 1109
4.5 1138
4.6 1071
4.7 1131
4.8 1106
4.9 1082
5 1179
5.1 1138
5.2 1225
5.3 1421
5.4 1578
5.5 1874
5.6 1478
5.7 1805
5.8 2639
5.9 1518
6 994
6.1 960
6.2 949
6.3 938
6.4 963
6.5 891
6.6 958
6.7 1006
6.8 1061
6.9 857
7 807
7.1 866
7.2 833
7.3 850
7.4 820
7.5 865
7.6 884
7.7 771
7.8 819
7.9 797
8 824
8.1 823
8.2 917
8.3 848
8.4 826
8.5 815
8.6 814
8.7 849
8.8 876
8.9 825
9 870
9.1 910
9.2 939
9.3 1100
9.4 1472
9.5 929
9.6 891
9.7 898
9.8 945
9.9 968
10 925
10.1 981
10.2 1097
10.3 900
10.4 883
10.5 870
10.6 893
10.7 895
10.8 1058
10.9 1057
11 1284
11.1 924
11.2 926
11.3 881
11.4 836
11.5 989
11.6 1002
11.7 915
11.8 853
11.9 860
12 912
12.1 857
12.2 902
12.3 948
12.4 850
12.5 890
12.6 936
12.7 878
12.8 903
12.9 893
13 910
13.1 901
13.2 915
13.3 908
13.4 958
13.5 934
13.6 947
13.7 948
13.8 969
13.9 971
14 961
14.1 1003
14.2 964
14.3 989
14.4 1012
14.5 968
14.6 1018
14.7 973
14.8 1039
14.9 1103
15 1016
15.1 1003
15.2 1122
15.3 1083
15.4 1086
15.5 1109
15.6 1113
15.7 1109
15.8 1155
15.9 1077
16 1153
16.1 1142
16.2 1147
16.3 1247
16.4 1213
16.5 1239
16.6 1290
16.7 1245
16.8 1253
16.9 1311
17 1669
17.1 1433
17.2 1275
17.3 1378
17.4 1331
17.5 1327
17.6 1393
17.7 1361
17.8 1408
17.9 1417
18 1413
18.1 1456
18.2 1462
18.3 1487
18.4 1438
18.5 1510
18.6 1557
18.7 1626
18.8 1579
18.9 1571
19 1671
19.1 1722
19.2 1707
19.3 1564
19.4 1682
19.5 1759
19.6 1935
19.7 1729
19.8 1713
19.9 1840
20 1748
20.1 1693
20.2 1849
20.3 1851
20.4 1791
20.5 1785
20.6 1756
20.7 1813
20.8 1898
20.9 1823
21 1866
21.1 1871
21.2 1940
21.3 1868
21.4 1883
21.5 1883
21.6 1783
21.7 1863
21.8 1924
21.9 1917
22 1973
22.1 1935
22.2 1851
22.3 1866
22.4 1835
22.5 1925
22.6 1864
22.7 1831
22.8 1778
22.9 1861
23 1839
23.1 1946
23.2 1920
23.3 1862
23.4 1750
23.5 1741
23.6 1832
23.7 1837
23.8 1775
23.9 1801
24 1730
24.1 1768
24.2 1692
24.3 1749
24.4 1731
24.5 1791
24.6 1830
24.7 1778
24.8 1792
24.9 1792
25 1773
25.1 1742
25.2 1775
25.3 1713
25.4 1703
25.5 1708
25.6 1786
25.7 1515
25.8 1632
25.9 1533
26 1546
26.1 1529
26.2 1583
26.3 1628
26.4 1577
26.5 1523
26.6 1499
26.7 1505
26.8 1688
26.9 1670
27 1606
27.1 1650
27.2 1664
27.3 1524
27.4 1488
27.5 1431
27.6 1486
27.7 1453
27.8 1458
27.9 1441
28 1378
28.1 1373
28.2 1454
28.3 1506
28.4 1536
28.5 1454
28.6 1355
28.7 1456
28.8 1505
28.9 1386
29 1391
29.1 1356
29.2 1373
29.3 1331
29.4 1297
29.5 1353
29.6 1320
29.7 1301
29.8 1403
29.9 1354
30 1284