File: xrd-UiO-67/pxrddata/4-38.ASC
3 2520
3.1 1968
3.2 1803
3.3 1761
3.4 1645
3.5 1509
3.6 1543
3.7 1457
3.8 1428
3.9 1350
4 1250
4.1 1247
4.2 1238
4.3 1203
4.4 1121
4.5 1194
4.6 1144
4.7 1111
4.8 1057
4.9 1077
5 1047
5.1 1068
5.2 1097
5.3 1061
5.4 1020
5.5 1053
5.6 1043
5.7 1063
5.8 1013
5.9 940
6 985
6.1 1097
6.2 1000
6.3 1031
6.4 970
6.5 948
6.6 937
6.7 936
6.8 995
6.9 924
7 924
7.1 876
7.2 925
7.3 933
7.4 939
7.5 908
7.6 927
7.7 945
7.8 967
7.9 905
8 859
8.1 898
8.2 865
8.3 893
8.4 908
8.5 878
8.6 907
8.7 904
8.8 913
8.9 899
9 966
9.1 852
9.2 899
9.3 910
9.4 966
9.5 912
9.6 923
9.7 957
9.8 907
9.9 847
10 944
10.1 936
10.2 881
10.3 900
10.4 884
10.5 885
10.6 859
10.7 902
10.8 926
10.9 894
11 855
11.1 854
11.2 905
11.3 936
11.4 842
11.5 933
11.6 846
11.7 906
11.8 899
11.9 935
12 947
12.1 902
12.2 935
12.3 933
12.4 895
12.5 899
12.6 907
12.7 970
12.8 893
12.9 969
13 991
13.1 1005
13.2 1045
13.3 993
13.4 992
13.5 968
13.6 1012
13.7 997
13.8 1083
13.9 1060
14 1000
14.1 1070
14.2 1088
14.3 1048
14.4 1034
14.5 1104
14.6 1086
14.7 1115
14.8 1183
14.9 1176
15 1169
15.1 1161
15.2 1213
15.3 1213
15.4 1240
15.5 1210
15.6 1230
15.7 1301
15.8 1284
15.9 1333
16 1363
16.1 1290
16.2 1366
16.3 1396
16.4 1406
16.5 1454
16.6 1494
16.7 1605
16.8 1763
16.9 2509
17 3769
17.1 2245
17.2 1674
17.3 1566
17.4 1601
17.5 1601
17.6 1785
17.7 1773
17.8 1754
17.9 1685
18 1718
18.1 1758
18.2 1738
18.3 1849
18.4 1817
18.5 1875
18.6 1899
18.7 1908
18.8 2084
18.9 1971
19 1989
19.1 2005
19.2 2084
19.3 2099
19.4 2051
19.5 2092
19.6 2169
19.7 2062
19.8 2105
19.9 2154
20 2123
20.1 2250
20.2 2290
20.3 2244
20.4 2354
20.5 2309
20.6 2240
20.7 2316
20.8 2358
20.9 2291
21 2404
21.1 2318
21.2 2300
21.3 2296
21.4 2382
21.5 2292
21.6 2353
21.7 2336
21.8 2374
21.9 2362
22 2306
22.1 2352
22.2 2319
22.3 2311
22.4 2324
22.5 2325
22.6 2325
22.7 2327
22.8 2368
22.9 2282
23 2277
23.1 2251
23.2 2204
23.3 2289
23.4 2271
23.5 2358
23.6 2276
23.7 2236
23.8 2220
23.9 2250
24 2131
24.1 2188
24.2 2174
24.3 2260
24.4 2416
24.5 2507
24.6 2600
24.7 2227
24.8 2171
24.9 2066
25 2066
25.1 2192
25.2 2712
25.3 3224
25.4 2638
25.5 2135
25.6 1929
25.7 1927
25.8 1998
25.9 1847
26 1914
26.1 1810
26.2 1814
26.3 1855
26.4 1831
26.5 1844
26.6 1881
26.7 2101
26.8 2337
26.9 2627
27 2299
27.1 1882
27.2 1737
27.3 1711
27.4 1730
27.5 1749
27.6 1677
27.7 1684
27.8 1639
27.9 1569
28 1635
28.1 1636
28.2 1664
28.3 1539
28.4 1620
28.5 1534
28.6 1643
28.7 1578
28.8 1503
28.9 1542
29 1575
29.1 1635
29.2 1682
29.3 1655
29.4 1563
29.5 1467
29.6 1474
29.7 1487
29.8 1469
29.9 1457
30 1439