File: xrd-UiO-67/pxrddata/40-6.ASC
3 2162
3.06 1688
3.12 1513
3.18 1374
3.24 1317
3.3 1306
3.36 1233
3.42 1325
3.48 1217
3.54 1096
3.6 1182
3.66 1119
3.72 1076
3.78 1150
3.84 1110
3.9 1022
3.96 1029
4.02 1041
4.08 1022
4.14 1001
4.2 984
4.26 956
4.32 975
4.38 994
4.44 958
4.5 965
4.56 924
4.62 998
4.68 934
4.74 916
4.8 949
4.86 906
4.92 939
4.98 996
5.04 999
5.1 1041
5.16 1103
5.22 1125
5.28 1213
5.34 1309
5.4 1524
5.46 1734
5.52 2185
5.58 2105
5.64 1409
5.7 1214
5.76 1058
5.82 994
5.88 954
5.94 911
6 872
6.06 798
6.12 802
6.18 839
6.24 802
6.3 731
6.36 739
6.42 799
6.48 752
6.54 751
6.6 713
6.66 730
6.72 793
6.78 766
6.84 730
6.9 762
6.96 694
7.02 707
7.08 726
7.14 754
7.2 726
7.26 737
7.32 717
7.38 759
7.44 751
7.5 706
7.56 694
7.62 769
7.68 712
7.74 747
7.8 709
7.86 718
7.92 730
7.98 769
8.04 712
8.1 744
8.16 743
8.22 694
8.28 742
8.34 754
8.4 794
8.46 714
8.52 789
8.58 780
8.64 756
8.7 719
8.76 747
8.82 773
8.88 730
8.94 801
9 792
9.06 813
9.12 800
9.18 854
9.24 901
9.3 934
9.36 1116
9.42 1201
9.48 1263
9.54 936
9.6 883
9.66 821
9.72 818
9.78 751
9.84 820
9.9 806
9.96 771
10.02 779
10.08 791
10.14 776
10.2 772
10.26 840
10.32 821
10.38 777
10.44 860
10.5 830
10.56 825
10.62 834
10.68 910
10.74 898
10.8 1064
10.86 1102
10.92 1134
10.98 982
11.04 938
11.1 917
11.16 833
11.22 814
11.28 847
11.34 797
11.4 828
11.46 766
11.52 824
11.58 831
11.64 885
11.7 785
11.76 863
11.82 867
11.88 819
11.94 859
12 849
12.06 853
12.12 872
12.18 897
12.24 925
12.3 894
12.36 907
12.42 896
12.48 876
12.54 886
12.6 876
12.66 901
12.72 854
12.78 927
12.84 891
12.9 875
12.96 955
13.02 895
13.08 867
13.14 967
13.2 902
13.26 953
13.32 953
13.38 951
13.44 952
13.5 912
13.56 949
13.62 982
13.68 1003
13.74 966
13.8 939
13.86 927
13.92 1030
13.98 986
14.04 1030
14.1 992
14.16 995
14.22 995
14.28 983
14.34 1046
14.4 1041
14.46 1008
14.52 1007
14.58 1055
14.64 1015
14.7 1012
14.76 1003
14.82 1034
14.88 1082
14.94 1047
15 1021
15.06 1106
15.12 1086
15.18 1078
15.24 1058
15.3 1092
15.36 1089
15.42 1134
15.48 1098
15.54 1114
15.6 1115
15.66 1135
15.72 1165
15.78 1125
15.84 1128
15.9 1213
15.96 1202
16.02 1220
16.08 1238
16.14 1169
16.2 1205
16.26 1240
16.32 1222
16.38 1213
16.44 1262
16.5 1223
16.56 1288
16.62 1298
16.68 1399
16.74 1372
16.8 1392
16.86 1511
16.92 1737
16.98 1992
17.04 2560
17.1 2510
17.16 1966
17.22 1538
17.28 1557
17.34 1444
17.4 1445
17.46 1560
17.52 1384
17.58 1444
17.64 1515
17.7 1470
17.76 1515
17.82 1533
17.88 1564
17.94 1581
18 1580
18.06 1597
18.12 1609
18.18 1640
18.24 1744
18.3 1754
18.36 1645
18.42 1738
18.48 1738
18.54 1753
18.6 1723
18.66 1780
18.72 1749
18.78 1943
18.84 1813
18.9 1785
18.96 1847
19.02 1877
19.08 1946
19.14 1916
19.2 1908
19.26 1894
19.32 1964
19.38 2015
19.44 2046
19.5 2132
19.56 2114
19.62 2217
19.68 2099
19.74 2059
19.8 2086
19.86 2073
19.92 2085
19.98 2192
20 2218