File: xrd-UiO-67/pxrddata/41-2.ASC
3 2064
3.06 1801
3.12 1471
3.18 1421
3.24 1357
3.3 1364
3.36 1297
3.42 1244
3.48 1225
3.54 1217
3.6 1251
3.66 1188
3.72 1184
3.78 1178
3.84 1173
3.9 1135
3.96 1160
4.02 1096
4.08 1071
4.14 1027
4.2 1067
4.26 1081
4.32 1102
4.38 1010
4.44 1039
4.5 1011
4.56 984
4.62 1022
4.68 988
4.74 960
4.8 987
4.86 976
4.92 942
4.98 976
5.04 975
5.1 969
5.16 957
5.22 1027
5.28 970
5.34 938
5.4 879
5.46 914
5.52 901
5.58 889
5.64 885
5.7 806
5.76 862
5.82 856
5.88 854
5.94 860
6 877
6.06 836
6.12 825
6.18 820
6.24 828
6.3 844
6.36 827
6.42 819
6.48 797
6.54 824
6.6 859
6.66 801
6.72 776
6.78 777
6.84 838
6.9 787
6.96 805
7.02 814
7.08 813
7.14 777
7.2 775
7.26 772
7.32 741
7.38 683
7.44 737
7.5 766
7.56 745
7.62 750
7.68 742
7.74 721
7.8 743
7.86 703
7.92 769
7.98 757
8.04 742
8.1 699
8.16 714
8.22 691
8.28 681
8.34 673
8.4 697
8.46 670
8.52 704
8.58 660
8.64 690
8.7 657
8.76 692
8.82 687
8.88 628
8.94 624
9 677
9.06 676
9.12 662
9.18 633
9.24 623
9.3 590
9.36 603
9.42 597
9.48 628
9.54 566
9.6 614
9.66 642
9.72 639
9.78 630
9.84 563
9.9 616
9.96 605
10.02 605
10.08 607
10.14 578
10.2 549
10.26 569
10.32 588
10.38 599
10.44 583
10.5 561
10.56 594
10.62 586
10.68 520
10.74 578
10.8 560
10.86 577
10.92 557
10.98 534
11.04 562
11.1 537
11.16 541
11.22 558
11.28 559
11.34 522
11.4 534
11.46 511
11.52 540
11.58 550
11.64 527
11.7 560
11.76 502
11.82 544
11.88 515
11.94 516
12 556
12.06 476
12.12 487
12.18 553
12.24 555
12.3 445
12.36 519
12.42 515
12.48 526
12.54 519
12.6 513
12.66 476
12.72 508
12.78 536
12.84 528
12.9 507
12.96 519
13.02 511
13.08 510
13.14 484
13.2 450
13.26 509
13.32 492
13.38 489
13.44 495
13.5 528
13.56 521
13.62 518
13.68 449
13.74 490
13.8 512
13.86 498
13.92 489
13.98 495
14.04 517
14.1 511
14.16 490
14.22 496
14.28 527
14.34 497
14.4 500
14.46 506
14.52 482
14.58 482
14.64 469
14.7 490
14.76 507
14.82 465
14.88 509
14.94 479
15 519
15.06 495
15.12 507
15.18 465
15.24 468
15.3 503
15.36 482
15.42 457
15.48 495
15.54 473
15.6 467
15.66 468
15.72 477
15.78 452
15.84 476
15.9 460
15.96 509
16.02 464
16.08 511
16.14 499
16.2 488
16.26 502
16.32 491
16.38 499
16.44 490
16.5 441
16.56 460
16.62 494
16.68 492
16.74 447
16.8 480
16.86 434
16.92 470
16.98 501
17.04 508
17.1 590
17.16 659
17.22 687
17.28 586
17.34 497
17.4 511
17.46 494
17.52 463
17.58 427
17.64 442
17.7 467
17.76 449
17.82 474
17.88 533
17.94 489
18 511
18.06 490
18.12 453
18.18 478
18.24 458
18.3 487
18.36 489
18.42 478
18.48 460
18.54 472
18.6 503
18.66 486
18.72 473
18.78 480
18.84 494
18.9 489
18.96 479
19.02 505
19.08 470
19.14 478
19.2 489
19.26 486
19.32 475
19.38 449
19.44 524
19.5 490
19.56 489
19.62 487
19.68 489
19.74 458
19.8 499
19.86 497
19.92 473
19.98 524
20 421