File: xrd-UiO-67/pxrddata/41-4.ASC
3 2142
3.06 2373
3.12 1517
3.18 1475
3.24 1421
3.3 1415
3.36 1401
3.42 1380
3.48 1318
3.54 1305
3.6 1241
3.66 1262
3.72 1339
3.78 1298
3.84 1246
3.9 1303
3.96 1206
4.02 1240
4.08 1228
4.14 1173
4.2 1208
4.26 1245
4.32 1175
4.38 1191
4.44 1122
4.5 1130
4.56 1149
4.62 1144
4.68 1169
4.74 1154
4.8 1189
4.86 1211
4.92 1140
4.98 1114
5.04 1206
5.1 1143
5.16 1189
5.22 1169
5.28 1199
5.34 1186
5.4 1212
5.46 1350
5.52 1342
5.58 1164
5.64 1098
5.7 1091
5.76 1029
5.82 1028
5.88 1020
5.94 1023
6 1011
6.06 1028
6.12 1014
6.18 1007
6.24 1007
6.3 944
6.36 992
6.42 977
6.48 930
6.54 991
6.6 997
6.66 973
6.72 976
6.78 983
6.84 900
6.9 915
6.96 931
7.02 909
7.08 865
7.14 866
7.2 905
7.26 849
7.32 860
7.38 838
7.44 861
7.5 828
7.56 855
7.62 842
7.68 835
7.74 878
7.8 882
7.86 843
7.92 832
7.98 914
8.04 873
8.1 779
8.16 805
8.22 805
8.28 790
8.34 839
8.4 870
8.46 833
8.52 796
8.58 819
8.64 762
8.7 794
8.76 788
8.82 746
8.88 750
8.94 725
9 737
9.06 705
9.12 693
9.18 679
9.24 710
9.3 751
9.36 746
9.42 770
9.48 701
9.54 696
9.6 718
9.66 734
9.72 666
9.78 629
9.84 677
9.9 663
9.96 637
10.02 680
10.08 635
10.14 652
10.2 611
10.26 663
10.32 698
10.38 669
10.44 651
10.5 673
10.56 650
10.62 640
10.68 610
10.74 669
10.8 644
10.86 615
10.92 611
10.98 635
11.04 574
11.1 619
11.16 597
11.22 583
11.28 591
11.34 583
11.4 577
11.46 614
11.52 595
11.58 619
11.64 583
11.7 572
11.76 538
11.82 580
11.88 583
11.94 525
12 578
12.06 572
12.12 587
12.18 582
12.24 564
12.3 577
12.36 568
12.42 567
12.48 567
12.54 585
12.6 529
12.66 586
12.72 557
12.78 546
12.84 567
12.9 548
12.96 535
13.02 544
13.08 562
13.14 548
13.2 575
13.26 594
13.32 556
13.38 558
13.44 534
13.5 533
13.56 556
13.62 543
13.68 551
13.74 564
13.8 547
13.86 545
13.92 557
13.98 545
14.04 564
14.1 516
14.16 563
14.22 591
14.28 547
14.34 518
14.4 509
14.46 544
14.52 521
14.58 484
14.64 557
14.7 560
14.76 576
14.82 545
14.88 562
14.94 558
15 537
15.06 564
15.12 526
15.18 536
15.24 542
15.3 557
15.36 524
15.42 528
15.48 503
15.54 549
15.6 526
15.66 516
15.72 527
15.78 505
15.84 514
15.9 514
15.96 553
16.02 531
16.08 562
16.14 525
16.2 521
16.26 509
16.32 538
16.38 523
16.44 522
16.5 503
16.56 558
16.62 519
16.68 582
16.74 533
16.8 542
16.86 523
16.92 592
16.98 638
17.04 629
17.1 649
17.16 655
17.22 655
17.28 630
17.34 560
17.4 586
17.46 555
17.52 569
17.58 543
17.64 532
17.7 541
17.76 577
17.82 526
17.88 533
17.94 581
18 556
18.06 502
18.12 554
18.18 555
18.24 564
18.3 574
18.36 552
18.42 593
18.48 544
18.54 551
18.6 518
18.66 517
18.72 552
18.78 582
18.84 548
18.9 573
18.96 565
19.02 584
19.08 570
19.14 566
19.2 545
19.26 539
19.32 606
19.38 576
19.44 536
19.5 575
19.56 570
19.62 571
19.68 594
19.74 598
19.8 597
19.86 597
19.92 529
19.98 585
20 603