File: xrd-UiO-67/pxrddata/41-5.ASC
3 2654
3.06 2044
3.12 1794
3.18 1709
3.24 1542
3.3 1535
3.36 1386
3.42 1257
3.48 1318
3.54 1322
3.6 1217
3.66 1283
3.72 1206
3.78 1194
3.84 1239
3.9 1167
3.96 1146
4.02 1132
4.08 1110
4.14 1085
4.2 1092
4.26 1064
4.32 1139
4.38 1035
4.44 1048
4.5 1017
4.56 1075
4.62 1091
4.68 1029
4.74 995
4.8 1076
4.86 1063
4.92 1079
4.98 1090
5.04 1080
5.1 1134
5.16 1227
5.22 1191
5.28 1396
5.34 1459
5.4 1740
5.46 2002
5.52 1575
5.58 1277
5.64 1087
5.7 1059
5.76 1065
5.82 1036
5.88 959
5.94 911
6 926
6.06 861
6.12 947
6.18 877
6.24 890
6.3 845
6.36 901
6.42 889
6.48 866
6.54 858
6.6 793
6.66 898
6.72 822
6.78 844
6.84 843
6.9 838
6.96 865
7.02 856
7.08 842
7.14 848
7.2 803
7.26 782
7.32 819
7.38 718
7.44 751
7.5 750
7.56 727
7.62 783
7.68 708
7.74 744
7.8 740
7.86 736
7.92 774
7.98 737
8.04 687
8.1 697
8.16 669
8.22 700
8.28 679
8.34 687
8.4 693
8.46 684
8.52 674
8.58 650
8.64 670
8.7 758
8.76 724
8.82 668
8.88 660
8.94 651
9 684
9.06 654
9.12 687
9.18 672
9.24 669
9.3 728
9.36 789
9.42 752
9.48 773
9.54 646
9.6 675
9.66 620
9.72 621
9.78 556
9.84 597
9.9 637
9.96 553
10.02 579
10.08 593
10.14 590
10.2 611
10.26 627
10.32 563
10.38 570
10.44 571
10.5 632
10.56 600
10.62 608
10.68 603
10.74 588
10.8 615
10.86 658
10.92 601
10.98 606
11.04 601
11.1 531
11.16 566
11.22 558
11.28 547
11.34 589
11.4 566
11.46 563
11.52 573
11.58 545
11.64 499
11.7 542
11.76 547
11.82 533
11.88 529
11.94 557
12 532
12.06 510
12.12 536
12.18 516
12.24 522
12.3 504
12.36 513
12.42 512
12.48 587
12.54 522
12.6 524
12.66 524
12.72 537
12.78 547
12.84 548
12.9 492
12.96 511
13.02 496
13.08 475
13.14 482
13.2 506
13.26 498
13.32 510
13.38 496
13.44 501
13.5 516
13.56 507
13.62 484
13.68 499
13.74 496
13.8 528
13.86 517
13.92 499
13.98 503
14.04 489
14.1 551
14.16 501
14.22 511
14.28 491
14.34 512
14.4 513
14.46 518
14.52 503
14.58 524
14.64 509
14.7 525
14.76 514
14.82 506
14.88 502
14.94 432
15 472
15.06 538
15.12 503
15.18 528
15.24 498
15.3 451
15.36 507
15.42 511
15.48 450
15.54 517
15.6 477
15.66 493
15.72 508
15.78 452
15.84 460
15.9 496
15.96 496
16.02 521
16.08 468
16.14 473
16.2 496
16.26 474
16.32 485
16.38 474
16.44 468
16.5 486
16.56 507
16.62 505
16.68 491
16.74 500
16.8 494
16.86 521
16.92 506
16.98 546
17.04 512
17.1 623
17.16 542
17.22 585
17.28 546
17.34 522
17.4 482
17.46 497
17.52 509
17.58 498
17.64 496
17.7 497
17.76 490
17.82 476
17.88 487
17.94 530
18 511
18.06 452
18.12 472
18.18 493
18.24 503
18.3 479
18.36 503
18.42 485
18.48 537
18.54 503
18.6 463
18.66 468
18.72 499
18.78 526
18.84 525
18.9 530
18.96 509
19.02 514
19.08 540
19.14 535
19.2 513
19.26 537
19.32 487
19.38 510
19.44 520
19.5 542
19.56 519
19.62 552
19.68 554
19.74 541
19.8 529
19.86 489
19.92 515
19.98 531
20 525