File: xrd-UiO-67/pxrddata/41-6.ASC
3 2432
3.06 1802
3.12 1618
3.18 1542
3.24 1502
3.3 1455
3.36 1461
3.42 1447
3.48 1314
3.54 1298
3.6 1283
3.66 1314
3.72 1226
3.78 1224
3.84 1294
3.9 1226
3.96 1255
4.02 1179
4.08 1232
4.14 1282
4.2 1247
4.26 1154
4.32 1214
4.38 1176
4.44 1148
4.5 1151
4.56 1135
4.62 1124
4.68 1090
4.74 1119
4.8 1143
4.86 1166
4.92 1097
4.98 1134
5.04 1135
5.1 1146
5.16 1178
5.22 1130
5.28 1094
5.34 1133
5.4 1164
5.46 1173
5.52 1185
5.58 1177
5.64 1121
5.7 1093
5.76 1087
5.82 956
5.88 978
5.94 1025
6 994
6.06 921
6.12 941
6.18 992
6.24 969
6.3 897
6.36 886
6.42 892
6.48 949
6.54 944
6.6 890
6.66 908
6.72 854
6.78 878
6.84 899
6.9 848
6.96 823
7.02 798
7.08 874
7.14 790
7.2 816
7.26 778
7.32 781
7.38 802
7.44 768
7.5 808
7.56 750
7.62 801
7.68 747
7.74 778
7.8 744
7.86 748
7.92 737
7.98 753
8.04 741
8.1 746
8.16 681
8.22 687
8.28 673
8.34 753
8.4 730
8.46 681
8.52 690
8.58 693
8.64 668
8.7 710
8.76 734
8.82 698
8.88 667
8.94 709
9 709
9.06 633
9.12 661
9.18 650
9.24 691
9.3 676
9.36 663
9.42 680
9.48 685
9.54 700
9.6 636
9.66 721
9.72 662
9.78 626
9.84 636
9.9 626
9.96 650
10.02 574
10.08 609
10.14 610
10.2 562
10.26 586
10.32 637
10.38 572
10.44 622
10.5 639
10.56 598
10.62 611
10.68 616
10.74 617
10.8 598
10.86 611
10.92 580
10.98 558
11.04 585
11.1 576
11.16 567
11.22 586
11.28 556
11.34 560
11.4 610
11.46 562
11.52 540
11.58 574
11.64 544
11.7 557
11.76 518
11.82 569
11.88 511
11.94 525
12 529
12.06 537
12.12 537
12.18 545
12.24 536
12.3 506
12.36 509
12.42 547
12.48 508
12.54 544
12.6 558
12.66 523
12.72 513
12.78 536
12.84 516
12.9 495
12.96 527
13.02 525
13.08 524
13.14 491
13.2 542
13.26 503
13.32 490
13.38 516
13.44 500
13.5 516
13.56 548
13.62 519
13.68 521
13.74 536
13.8 537
13.86 506
13.92 534
13.98 499
14.04 485
14.1 533
14.16 519
14.22 462
14.28 493
14.34 493
14.4 510
14.46 500
14.52 516
14.58 514
14.64 559
14.7 514
14.76 521
14.82 526
14.88 512
14.94 507
15 536
15.06 492
15.12 541
15.18 519
15.24 525
15.3 540
15.36 571
15.42 532
15.48 506
15.54 519
15.6 541
15.66 521
15.72 513
15.78 540
15.84 511
15.9 536
15.96 541
16.02 531
16.08 530
16.14 539
16.2 535
16.26 483
16.32 519
16.38 539
16.44 566
16.5 541
16.56 561
16.62 545
16.68 552
16.74 580
16.8 544
16.86 547
16.92 577
16.98 643
17.04 626
17.1 761
17.16 793
17.22 830
17.28 612
17.34 586
17.4 565
17.46 554
17.52 578
17.58 570
17.64 563
17.7 572
17.76 538
17.82 561
17.88 543
17.94 568
18 569
18.06 560
18.12 582
18.18 552
18.24 573
18.3 574
18.36 546
18.42 598
18.48 615
18.54 568
18.6 563
18.66 499
18.72 583
18.78 540
18.84 550
18.9 578
18.96 574
19.02 579
19.08 562
19.14 566
19.2 596
19.26 563
19.32 627
19.38 598
19.44 594
19.5 575
19.56 589
19.62 605
19.68 593
19.74 591
19.8 566
19.86 595
19.92 649
19.98 604
20 596