File: xrd-UiO-67/pxrddata/43-10.ASC
3 2375
3.06 2029
3.12 1812
3.18 1661
3.24 1561
3.3 1504
3.36 1494
3.42 1427
3.48 1403
3.54 1401
3.6 1302
3.66 1337
3.72 1215
3.78 1221
3.84 1263
3.9 1218
3.96 1194
4.02 1152
4.08 1125
4.14 1156
4.2 1152
4.26 1098
4.32 1090
4.38 1077
4.44 1031
4.5 970
4.56 1025
4.62 1073
4.68 962
4.74 1006
4.8 999
4.86 1033
4.92 1023
4.98 1011
5.04 1015
5.1 1077
5.16 1101
5.22 1173
5.28 1220
5.34 1334
5.4 1579
5.46 2035
5.52 1458
5.58 1230
5.64 1152
5.7 1187
5.76 1264
5.82 1241
5.88 1075
5.94 859
6 820
6.06 783
6.12 773
6.18 721
6.24 772
6.3 716
6.36 731
6.42 697
6.48 709
6.54 760
6.6 731
6.66 678
6.72 734
6.78 755
6.84 723
6.9 696
6.96 676
7.02 678
7.08 671
7.14 658
7.2 655
7.26 654
7.32 651
7.38 657
7.44 709
7.5 659
7.56 695
7.62 665
7.68 701
7.74 711
7.8 704
7.86 607
7.92 634
7.98 660
8.04 666
8.1 681
8.16 657
8.22 625
8.28 654
8.34 648
8.4 664
8.46 688
8.52 661
8.58 631
8.64 642
8.7 682
8.76 675
8.82 679
8.88 690
8.94 679
9 655
9.06 693
9.12 718
9.18 768
9.24 836
9.3 890
9.36 1088
9.42 891
9.48 707
9.54 693
9.6 726
9.66 662
9.72 637
9.78 664
9.84 704
9.9 632
9.96 626
10.02 657
10.08 672
10.14 686
10.2 713
10.26 679
10.32 675
10.38 611
10.44 651
10.5 661
10.56 686
10.62 676
10.68 711
10.74 775
10.8 849
10.86 830
10.92 789
10.98 775
11.04 714
11.1 666
11.16 677
11.22 659
11.28 646
11.34 656
11.4 659
11.46 725
11.52 701
11.58 737
11.64 701
11.7 704
11.76 689
11.82 621
11.88 698
11.94 679
12 682
12.06 674
12.12 725
12.18 716
12.24 656
12.3 702
12.36 754
12.42 713
12.48 707
12.54 757
12.6 734
12.66 714
12.72 702
12.78 677
12.84 764
12.9 711
12.96 760
13.02 751
13.08 721
13.14 777
13.2 763
13.26 887
13.32 881
13.38 795
13.44 777
13.5 794
13.56 737
13.62 772
13.68 738
13.74 731
13.8 716
13.86 814
13.92 781
13.98 749
14.04 828
14.1 825
14.16 743
14.22 785
14.28 843
14.34 845
14.4 841
14.46 846
14.52 823
14.58 828
14.64 839
14.7 859
14.76 815
14.82 851
14.88 885
14.94 883
15 891
15.06 921
15.12 903
15.18 833
15.24 902
15.3 974
15.36 976
15.42 965
15.48 915
15.54 946
15.6 899
15.66 905
15.72 1033
15.78 991
15.84 966
15.9 1002
15.96 982
16.02 998
16.08 979
16.14 1020
16.2 981
16.26 997
16.32 989
16.38 1022
16.44 1097
16.5 1122
16.56 1109
16.62 1241
16.68 1156
16.74 1179
16.8 1349
16.86 1794
16.92 2285
16.98 4264
17.04 7512
17.1 4032
17.16 1436
17.22 1337
17.28 1251
17.34 1275
17.4 1261
17.46 1310
17.52 1212
17.58 1288
17.64 1307
17.7 1375
17.76 1251
17.82 1332
17.88 1293
17.94 1363
18 1302
18.06 1401
18.12 1391
18.18 1369
18.24 1443
18.3 1402
18.36 1384
18.42 1408
18.48 1451
18.54 1461
18.6 1529
18.66 1501
18.72 1505
18.78 1508
18.84 1545
18.9 1562
18.96 1579
19.02 1542
19.08 1566
19.14 1645
19.2 1576
19.26 1638
19.32 1591
19.38 1680
19.44 1649
19.5 1744
19.56 1831
19.62 1663
19.68 1692
19.74 1697
19.8 1752
19.86 1760
19.92 1694
19.98 1671
20 1729