File: xrd-UiO-67/pxrddata/44-13.ASC
3 2636
3.06 2165
3.12 1963
3.18 1827
3.24 1834
3.3 1823
3.36 1677
3.42 1636
3.48 1654
3.54 1541
3.6 1603
3.66 1503
3.72 1404
3.78 1566
3.84 1406
3.9 1523
3.96 1440
4.02 1412
4.08 1443
4.14 1386
4.2 1363
4.26 1401
4.32 1405
4.38 1392
4.44 1421
4.5 1355
4.56 1406
4.62 1390
4.68 1395
4.74 1477
4.8 1409
4.86 1472
4.92 1511
4.98 1478
5.04 1614
5.1 1690
5.16 1787
5.22 1834
5.28 2109
5.34 2530
5.4 3073
5.46 3922
5.52 2952
5.58 2435
5.64 2309
5.7 2382
5.76 2327
5.82 2070
5.88 1633
5.94 1397
6 1183
6.06 1052
6.12 1046
6.18 1099
6.24 985
6.3 994
6.36 896
6.42 944
6.48 899
6.54 930
6.6 905
6.66 950
6.72 873
6.78 979
6.84 922
6.9 840
6.96 873
7.02 865
7.08 816
7.14 814
7.2 794
7.26 770
7.32 820
7.38 816
7.44 815
7.5 750
7.56 830
7.62 813
7.68 790
7.74 839
7.8 792
7.86 794
7.92 784
7.98 792
8.04 863
8.1 780
8.16 809
8.22 852
8.28 835
8.34 851
8.4 764
8.46 786
8.52 759
8.58 826
8.64 788
8.7 805
8.76 789
8.82 811
8.88 835
8.94 861
9 877
9.06 877
9.12 933
9.18 1007
9.24 1111
9.3 1454
9.36 1940
9.42 1346
9.48 920
9.54 868
9.6 890
9.66 823
9.72 802
9.78 840
9.84 834
9.9 852
9.96 913
10.02 810
10.08 899
10.14 876
10.2 899
10.26 829
10.32 843
10.38 861
10.44 841
10.5 843
10.56 883
10.62 966
10.68 986
10.74 1052
10.8 1314
10.86 1188
10.92 1158
10.98 1176
11.04 1005
11.1 882
11.16 862
11.22 826
11.28 810
11.34 822
11.4 843
11.46 883
11.52 919
11.58 856
11.64 872
11.7 871
11.76 815
11.82 857
11.88 843
11.94 790
12 809
12.06 858
12.12 855
12.18 889
12.24 875
12.3 920
12.36 874
12.42 833
12.48 882
12.54 867
12.6 884
12.66 856
12.72 893
12.78 870
12.84 867
12.9 920
12.96 833
13.02 913
13.08 862
13.14 849
13.2 960
13.26 917
13.32 924
13.38 902
13.44 882
13.5 917
13.56 906
13.62 931
13.68 924
13.74 940
13.8 902
13.86 984
13.92 894
13.98 934
14.04 924
14.1 877
14.16 955
14.22 990
14.28 981
14.34 952
14.4 974
14.46 928
14.52 1018
14.58 987
14.64 983
14.7 1019
14.76 972
14.82 1006
14.88 1015
14.94 974
15 997
15.06 1053
15.12 996
15.18 987
15.24 1008
15.3 962
15.36 955
15.42 985
15.48 1051
15.54 1050
15.6 1056
15.66 1016
15.72 1028
15.78 1047
15.84 1047
15.9 1023
15.96 1100
16.02 1081
16.08 1078
16.14 1147
16.2 1049
16.26 1097
16.32 1099
16.38 1163
16.44 1189
16.5 1137
16.56 1245
16.62 1204
16.68 1230
16.74 1276
16.8 1362
16.86 1460
16.92 1941
16.98 2759
17.04 2563
17.1 1559
17.16 1327
17.22 1288
17.28 1286
17.34 1300
17.4 1323
17.46 1313
17.52 1318
17.58 1339
17.64 1325
17.7 1316
17.76 1321
17.82 1282
17.88 1335
17.94 1408
18 1442
18.06 1359
18.12 1374
18.18 1377
18.24 1382
18.3 1450
18.36 1450
18.42 1460
18.48 1457
18.54 1479
18.6 1500
18.66 1512
18.72 1555
18.78 1538
18.84 1504
18.9 1556
18.96 1528
19.02 1574
19.08 1570
19.14 1676
19.2 1601
19.26 1657
19.32 1608
19.38 1646
19.44 1703
19.5 1846
19.56 1759
19.62 1813
19.68 1718
19.74 1672
19.8 1695
19.86 1658
19.92 1715
19.98 1698
20 1694