File: xrd-UiO-67/pxrddata/44-12.ASC
3 1950
3.06 1541
3.12 1324
3.18 1215
3.24 1203
3.3 1186
3.36 1067
3.42 1146
3.48 1041
3.54 1004
3.6 1012
3.66 1024
3.72 998
3.78 968
3.84 952
3.9 959
3.96 922
4.02 896
4.08 927
4.14 889
4.2 883
4.26 874
4.32 802
4.38 796
4.44 768
4.5 776
4.56 727
4.62 700
4.68 723
4.74 704
4.8 741
4.86 718
4.92 684
4.98 719
5.04 766
5.1 729
5.16 785
5.22 781
5.28 894
5.34 942
5.4 1039
5.46 1185
5.52 1535
5.58 1508
5.64 1218
5.7 1176
5.76 1306
5.82 1509
5.88 1623
5.94 1415
6 960
6.06 757
6.12 656
6.18 598
6.24 612
6.3 556
6.36 566
6.42 575
6.48 573
6.54 590
6.6 592
6.66 566
6.72 624
6.78 612
6.84 559
6.9 613
6.96 653
7.02 559
7.08 536
7.14 519
7.2 517
7.26 522
7.32 511
7.38 531
7.44 493
7.5 513
7.56 502
7.62 535
7.68 507
7.74 486
7.8 485
7.86 542
7.92 481
7.98 530
8.04 500
8.1 567
8.16 480
8.22 525
8.28 533
8.34 549
8.4 533
8.46 504
8.52 557
8.58 488
8.64 477
8.7 503
8.76 481
8.82 521
8.88 493
8.94 500
9 557
9.06 587
9.12 536
9.18 571
9.24 574
9.3 655
9.36 731
9.42 877
9.48 958
9.54 718
9.6 547
9.66 532
9.72 526
9.78 551
9.84 502
9.9 552
9.96 556
10.02 543
10.08 502
10.14 514
10.2 584
10.26 607
10.32 598
10.38 603
10.44 557
10.5 529
10.56 513
10.62 498
10.68 543
10.74 567
10.8 592
10.86 685
10.92 705
10.98 703
11.04 759
11.1 779
11.16 599
11.22 563
11.28 580
11.34 534
11.4 516
11.46 573
11.52 563
11.58 593
11.64 577
11.7 569
11.76 539
11.82 509
11.88 551
11.94 572
12 519
12.06 526
12.12 483
12.18 545
12.24 548
12.3 563
12.36 564
12.42 554
12.48 543
12.54 514
12.6 568
12.66 528
12.72 517
12.78 535
12.84 578
12.9 537
12.96 544
13.02 570
13.08 568
13.14 557
13.2 544
13.26 559
13.32 546
13.38 542
13.44 546
13.5 593
13.56 585
13.62 644
13.68 608
13.74 573
13.8 578
13.86 603
13.92 569
13.98 602
14.04 561
14.1 563
14.16 587
14.22 638
14.28 659
14.34 662
14.4 674
14.46 655
14.52 685
14.58 642
14.64 626
14.7 609
14.76 629
14.82 657
14.88 701
14.94 644
15 718
15.06 700
15.12 675
15.18 713
15.24 700
15.3 698
15.36 716
15.42 733
15.48 722
15.54 680
15.6 737
15.66 737
15.72 679
15.78 719
15.84 783
15.9 758
15.96 724
16.02 798
16.08 794
16.14 805
16.2 796
16.26 761
16.32 778
16.38 848
16.44 810
16.5 811
16.56 837
16.62 848
16.68 872
16.74 827
16.8 885
16.86 929
16.92 897
16.98 961
17.04 947
17.1 917
17.16 973
17.22 955
17.28 970
17.34 971
17.4 921
17.46 968
17.52 1032
17.58 976
17.64 1015
17.7 1005
17.76 1002
17.82 1039
17.88 998
17.94 995
18 1092
18.06 1062
18.12 1048
18.18 1117
18.24 1057
18.3 1073
18.36 1048
18.42 1137
18.48 1144
18.54 1172
18.6 1176
18.66 1133
18.72 1203
18.78 1201
18.84 1170
18.9 1214
18.96 1247
19.02 1313
19.08 1324
19.14 1308
19.2 1317
19.26 1360
19.32 1301
19.38 1319
19.44 1375
19.5 1395
19.56 1407
19.62 1484
19.68 1426
19.74 1443
19.8 1346
19.86 1352
19.92 1421
19.98 1333
20 1389