File: xrd-UiO-67/pxrddata/44-11.ASC
3 3246
3.06 2765
3.12 2419
3.18 2347
3.24 2260
3.3 2148
3.36 2069
3.42 1899
3.48 1878
3.54 1789
3.6 1657
3.66 1583
3.72 1585
3.78 1454
3.84 1410
3.9 1353
3.96 1361
4.02 1204
4.08 1217
4.14 1230
4.2 1180
4.26 1095
4.32 1104
4.38 1058
4.44 1018
4.5 1040
4.56 1004
4.62 966
4.68 994
4.74 937
4.8 903
4.86 955
4.92 940
4.98 886
5.04 940
5.1 955
5.16 995
5.22 1049
5.28 1061
5.34 1228
5.4 1482
5.46 1866
5.52 1413
5.58 1314
5.64 1228
5.7 1254
5.76 1398
5.82 1185
5.88 885
5.94 823
6 759
6.06 751
6.12 679
6.18 712
6.24 673
6.3 664
6.36 684
6.42 712
6.48 638
6.54 702
6.6 639
6.66 719
6.72 622
6.78 693
6.84 644
6.9 611
6.96 622
7.02 629
7.08 613
7.14 602
7.2 598
7.26 632
7.32 600
7.38 606
7.44 628
7.5 610
7.56 583
7.62 606
7.68 587
7.74 570
7.8 622
7.86 569
7.92 639
7.98 605
8.04 569
8.1 568
8.16 561
8.22 604
8.28 567
8.34 574
8.4 572
8.46 594
8.52 527
8.58 554
8.64 548
8.7 549
8.76 560
8.82 565
8.88 594
8.94 605
9 554
9.06 625
9.12 633
9.18 667
9.24 745
9.3 776
9.36 1085
9.42 823
9.48 595
9.54 582
9.6 558
9.66 548
9.72 537
9.78 555
9.84 539
9.9 571
9.96 558
10.02 583
10.08 549
10.14 547
10.2 590
10.26 570
10.32 607
10.38 580
10.44 547
10.5 571
10.56 610
10.62 587
10.68 643
10.74 665
10.8 704
10.86 700
10.92 688
10.98 687
11.04 675
11.1 565
11.16 564
11.22 544
11.28 526
11.34 503
11.4 559
11.46 597
11.52 521
11.58 587
11.64 530
11.7 603
11.76 519
11.82 561
11.88 549
11.94 550
12 552
12.06 563
12.12 550
12.18 579
12.24 574
12.3 561
12.36 575
12.42 547
12.48 547
12.54 564
12.6 522
12.66 577
12.72 532
12.78 533
12.84 560
12.9 584
12.96 577
13.02 534
13.08 544
13.14 573
13.2 607
13.26 625
13.32 574
13.38 599
13.44 619
13.5 577
13.56 607
13.62 573
13.68 610
13.74 582
13.8 580
13.86 605
13.92 591
13.98 608
14.04 617
14.1 613
14.16 634
14.22 635
14.28 620
14.34 623
14.4 657
14.46 647
14.52 607
14.58 639
14.64 672
14.7 665
14.76 619
14.82 708
14.88 737
14.94 694
15 662
15.06 683
15.12 677
15.18 640
15.24 682
15.3 672
15.36 644
15.42 732
15.48 684
15.54 663
15.6 694
15.66 725
15.72 777
15.78 740
15.84 757
15.9 750
15.96 684
16.02 696
16.08 765
16.14 753
16.2 744
16.26 808
16.32 743
16.38 781
16.44 804
16.5 831
16.56 822
16.62 834
16.68 834
16.74 873
16.8 880
16.86 943
16.92 1094
16.98 1392
17.04 1602
17.1 1156
17.16 946
17.22 926
17.28 934
17.34 918
17.4 892
17.46 904
17.52 931
17.58 894
17.64 905
17.7 879
17.76 946
17.82 975
17.88 961
17.94 982
18 971
18.06 961
18.12 995
18.18 956
18.24 988
18.3 983
18.36 942
18.42 1044
18.48 1025
18.54 1057
18.6 1084
18.66 1141
18.72 1100
18.78 1096
18.84 1091
18.9 1092
18.96 1110
19.02 1192
19.08 1137
19.14 1188
19.2 1167
19.26 1211
19.32 1127
19.38 1204
19.44 1258
19.5 1310
19.56 1307
19.62 1321
19.68 1281
19.74 1240
19.8 1245
19.86 1311
19.92 1292
19.98 1232
20 1292