File: xrd-UiO-67/pxrddata/45-1.ASC
3 2278
3.06 1865
3.12 1574
3.18 1445
3.24 1403
3.3 1365
3.36 1366
3.42 1216
3.48 1282
3.54 1194
3.6 1162
3.66 1119
3.72 1064
3.78 1086
3.84 1063
3.9 940
3.96 1009
4.02 994
4.08 962
4.14 968
4.2 935
4.26 871
4.32 851
4.38 833
4.44 801
4.5 842
4.56 784
4.62 821
4.68 742
4.74 777
4.8 736
4.86 729
4.92 713
4.98 778
5.04 731
5.1 774
5.16 778
5.22 744
5.28 844
5.34 776
5.4 836
5.46 917
5.52 910
5.58 955
5.64 1070
5.7 1251
5.76 1787
5.82 2310
5.88 1318
5.94 838
6 732
6.06 645
6.12 733
6.18 677
6.24 646
6.3 726
6.36 709
6.42 706
6.48 787
6.54 849
6.6 871
6.66 989
6.72 1003
6.78 968
6.84 756
6.9 626
6.96 659
7.02 581
7.08 666
7.14 566
7.2 606
7.26 578
7.32 581
7.38 581
7.44 559
7.5 576
7.56 633
7.62 580
7.68 565
7.74 583
7.8 516
7.86 583
7.92 575
7.98 585
8.04 596
8.1 587
8.16 597
8.22 578
8.28 590
8.34 572
8.4 544
8.46 543
8.52 543
8.58 593
8.64 591
8.7 579
8.76 552
8.82 594
8.88 574
8.94 550
9 514
9.06 598
9.12 604
9.18 604
9.24 651
9.3 778
9.36 979
9.42 1077
9.48 803
9.54 599
9.6 559
9.66 575
9.72 506
9.78 623
9.84 559
9.9 573
9.96 578
10.02 543
10.08 545
10.14 554
10.2 630
10.26 580
10.32 535
10.38 490
10.44 560
10.5 538
10.56 518
10.62 568
10.68 559
10.74 596
10.8 613
10.86 703
10.92 787
10.98 835
11.04 777
11.1 783
11.16 721
11.22 614
11.28 663
11.34 613
11.4 614
11.46 621
11.52 708
11.58 696
11.64 606
11.7 592
11.76 578
11.82 581
11.88 559
11.94 549
12 525
12.06 543
12.12 511
12.18 539
12.24 567
12.3 614
12.36 569
12.42 548
12.48 563
12.54 597
12.6 550
12.66 551
12.72 500
12.78 554
12.84 560
12.9 608
12.96 576
13.02 611
13.08 612
13.14 578
13.2 595
13.26 602
13.32 614
13.38 574
13.44 669
13.5 576
13.56 616
13.62 587
13.68 609
13.74 601
13.8 618
13.86 558
13.92 600
13.98 561
14.04 631
14.1 605
14.16 601
14.22 622
14.28 625
14.34 710
14.4 674
14.46 700
14.52 682
14.58 657
14.64 640
14.7 650
14.76 672
14.82 628
14.88 694
14.94 682
15 675
15.06 668
15.12 652
15.18 647
15.24 677
15.3 692
15.36 712
15.42 713
15.48 690
15.54 688
15.6 748
15.66 742
15.72 742
15.78 667
15.84 707
15.9 733
15.96 724
16.02 717
16.08 750
16.14 765
16.2 717
16.26 774
16.32 760
16.38 783
16.44 768
16.5 847
16.56 820
16.62 786
16.68 802
16.74 841
16.8 853
16.86 862
16.92 989
16.98 1231
17.04 1381
17.1 1115
17.16 916
17.22 905
17.28 906
17.34 917
17.4 955
17.46 925
17.52 921
17.58 904
17.64 943
17.7 934
17.76 908
17.82 902
17.88 928
17.94 967
18 935
18.06 960
18.12 982
18.18 1001
18.24 1022
18.3 991
18.36 998
18.42 991
18.48 1027
18.54 1013
18.6 1028
18.66 1118
18.72 1024
18.78 1101
18.84 1123
18.9 1105
18.96 1094
19.02 1104
19.08 1133
19.14 1159
19.2 1146
19.26 1210
19.32 1198
19.38 1174
19.44 1189
19.5 1257
19.56 1317
19.62 1250
19.68 1321
19.74 1270
19.8 1308
19.86 1329
19.92 1373
19.98 1358
20 1339