File: xrd-UiO-67/pxrddata/45-11.ASC
3 2333
3.06 1856
3.12 1652
3.18 1595
3.24 1501
3.3 1455
3.36 1296
3.42 1294
3.48 1254
3.54 1256
3.6 1119
3.66 1113
3.72 1164
3.78 1083
3.84 1082
3.9 961
3.96 1010
4.02 1011
4.08 1080
4.14 1027
4.2 871
4.26 853
4.32 858
4.38 837
4.44 790
4.5 793
4.56 784
4.62 802
4.68 769
4.74 776
4.8 805
4.86 761
4.92 785
4.98 724
5.04 705
5.1 787
5.16 848
5.22 919
5.28 923
5.34 989
5.4 1224
5.46 1297
5.52 1305
5.58 1501
5.64 1914
5.7 2639
5.76 4655
5.82 3188
5.88 1123
5.94 852
6 744
6.06 705
6.12 771
6.18 761
6.24 752
6.3 753
6.36 833
6.42 867
6.48 999
6.54 1193
6.6 1532
6.66 2011
6.72 1165
6.78 1011
6.84 801
6.9 652
6.96 585
7.02 612
7.08 609
7.14 614
7.2 586
7.26 589
7.32 581
7.38 659
7.44 567
7.5 584
7.56 588
7.62 585
7.68 606
7.74 602
7.8 565
7.86 558
7.92 571
7.98 567
8.04 560
8.1 580
8.16 546
8.22 571
8.28 570
8.34 580
8.4 600
8.46 567
8.52 560
8.58 559
8.64 574
8.7 531
8.76 609
8.82 565
8.88 616
8.94 580
9 626
9.06 630
9.12 688
9.18 764
9.24 946
9.3 1147
9.36 1847
9.42 1354
9.48 719
9.54 602
9.6 562
9.66 577
9.72 551
9.78 574
9.84 544
9.9 570
9.96 577
10.02 539
10.08 558
10.14 594
10.2 621
10.26 589
10.32 528
10.38 564
10.44 563
10.5 560
10.56 576
10.62 571
10.68 641
10.74 672
10.8 779
10.86 847
10.92 1045
10.98 1499
11.04 1069
11.1 759
11.16 690
11.22 662
11.28 610
11.34 647
11.4 763
11.46 968
11.52 941
11.58 647
11.64 597
11.7 570
11.76 555
11.82 487
11.88 510
11.94 518
12 524
12.06 513
12.12 515
12.18 546
12.24 514
12.3 581
12.36 503
12.42 519
12.48 552
12.54 533
12.6 486
12.66 541
12.72 490
12.78 482
12.84 549
12.9 510
12.96 515
13.02 569
13.08 542
13.14 576
13.2 587
13.26 609
13.32 650
13.38 606
13.44 565
13.5 560
13.56 556
13.62 547
13.68 559
13.74 575
13.8 522
13.86 542
13.92 553
13.98 560
14.04 571
14.1 520
14.16 601
14.22 564
14.28 583
14.34 608
14.4 650
14.46 747
14.52 614
14.58 607
14.64 600
14.7 653
14.76 602
14.82 659
14.88 641
14.94 622
15 551
15.06 639
15.12 622
15.18 638
15.24 657
15.3 629
15.36 614
15.42 600
15.48 601
15.54 651
15.6 626
15.66 630
15.72 698
15.78 652
15.84 644
15.9 659
15.96 665
16.02 673
16.08 669
16.14 708
16.2 686
16.26 702
16.32 691
16.38 696
16.44 711
16.5 742
16.56 673
16.62 681
16.68 723
16.74 739
16.8 741
16.86 831
16.92 942
16.98 1238
17.04 1104
17.1 861
17.16 830
17.22 863
17.28 819
17.34 799
17.4 818
17.46 786
17.52 831
17.58 793
17.64 779
17.7 842
17.76 843
17.82 854
17.88 844
17.94 857
18 872
18.06 878
18.12 865
18.18 827
18.24 864
18.3 955
18.36 904
18.42 870
18.48 874
18.54 910
18.6 878
18.66 880
18.72 940
18.78 897
18.84 973
18.9 940
18.96 937
19.02 973
19.08 921
19.14 1061
19.2 996
19.26 1047
19.32 1007
19.38 1056
19.44 1137
19.5 1201
19.56 1299
19.62 1388
19.68 1262
19.74 1165
19.8 1249
19.86 1433
19.92 1492
19.98 1323
20 1179