File: xrd-UiO-67/pxrddata/45-18.ASC
3 2173
3.06 1772
3.12 1550
3.18 1394
3.24 1411
3.3 1231
3.36 1280
3.42 1235
3.48 1192
3.54 1202
3.6 1155
3.66 1072
3.72 1035
3.78 1029
3.84 974
3.9 986
3.96 941
4.02 885
4.08 892
4.14 889
4.2 826
4.26 838
4.32 835
4.38 757
4.44 737
4.5 808
4.56 761
4.62 764
4.68 784
4.74 732
4.8 735
4.86 726
4.92 705
4.98 647
5.04 684
5.1 713
5.16 676
5.22 672
5.28 670
5.34 679
5.4 663
5.46 666
5.52 656
5.58 666
5.64 659
5.7 662
5.76 666
5.82 639
5.88 712
5.94 631
6 629
6.06 683
6.12 721
6.18 704
6.24 692
6.3 706
6.36 686
6.42 705
6.48 810
6.54 690
6.6 714
6.66 753
6.72 804
6.78 802
6.84 832
6.9 779
6.96 819
7.02 803
7.08 794
7.14 821
7.2 813
7.26 723
7.32 754
7.38 766
7.44 737
7.5 721
7.56 723
7.62 732
7.68 715
7.74 699
7.8 722
7.86 734
7.92 701
7.98 762
8.04 716
8.1 757
8.16 769
8.22 782
8.28 775
8.34 786
8.4 853
8.46 875
8.52 908
8.58 961
8.64 1109
8.7 1265
8.76 1433
8.82 1694
8.88 2118
8.94 2672
9 2429
9.06 2150
9.12 1934
9.18 1713
9.24 1696
9.3 1626
9.36 1586
9.42 1439
9.48 1273
9.54 1255
9.6 1204
9.66 1363
9.72 1493
9.78 1637
9.84 1893
9.9 2215
9.96 2515
10.02 2326
10.08 1701
10.14 1393
10.2 1222
10.26 1124
10.32 1047
10.38 1048
10.44 1019
10.5 1011
10.56 964
10.62 979
10.68 1046
10.74 1039
10.8 1073
10.86 1049
10.92 989
10.98 891
11.04 802
11.1 777
11.16 738
11.22 708
11.28 717
11.34 716
11.4 639
11.46 634
11.52 653
11.58 647
11.64 583
11.7 626
11.76 586
11.82 604
11.88 607
11.94 645
12 604
12.06 592
12.12 660
12.18 608
12.24 629
12.3 646
12.36 717
12.42 788
12.48 922
12.54 1147
12.6 1356
12.66 1384
12.72 1200
12.78 960
12.84 814
12.9 725
12.96 740
13.02 670
13.08 649
13.14 667
13.2 709
13.26 672
13.32 668
13.38 710
13.44 660
13.5 633
13.56 635
13.62 602
13.68 613
13.74 604
13.8 608
13.86 644
13.92 639
13.98 646
14.04 609
14.1 644
14.16 625
14.22 635
14.28 668
14.34 679
14.4 679
14.46 703
14.52 675
14.58 682
14.64 702
14.7 697
14.76 691
14.82 649
14.88 661
14.94 627
15 613
15.06 616
15.12 668
15.18 663
15.24 638
15.3 658
15.36 636
15.42 632
15.48 670
15.54 659
15.6 634
15.66 697
15.72 650
15.78 680
15.84 627
15.9 668
15.96 700
16.02 690
16.08 663
16.14 678
16.2 691
16.26 662
16.32 686
16.38 760
16.44 745
16.5 732
16.56 676
16.62 728
16.68 754
16.74 805
16.8 929
16.86 1017
16.92 1288
16.98 1430
17.04 1202
17.1 868
17.16 756
17.22 769
17.28 764
17.34 754
17.4 752
17.46 762
17.52 760
17.58 747
17.64 790
17.7 871
17.76 807
17.82 831
17.88 882
17.94 827
18 828
18.06 845
18.12 864
18.18 899
18.24 883
18.3 953
18.36 932
18.42 908
18.48 896
18.54 876
18.6 969
18.66 920
18.72 932
18.78 930
18.84 956
18.9 906
18.96 924
19.02 915
19.08 937
19.14 903
19.2 941
19.26 957
19.32 942
19.38 970
19.44 944
19.5 958
19.56 986
19.62 1025
19.68 1028
19.74 1002
19.8 1015
19.86 1203
19.92 1246
19.98 1246
20 1211