File: xrd-UiO-67/pxrddata/45-17.ASC
3 2396
3.06 2072
3.12 1677
3.18 1634
3.24 1514
3.3 1556
3.36 1438
3.42 1410
3.48 1297
3.54 1298
3.6 1266
3.66 1157
3.72 1197
3.78 1176
3.84 1070
3.9 1067
3.96 982
4.02 1022
4.08 990
4.14 983
4.2 965
4.26 878
4.32 892
4.38 882
4.44 812
4.5 820
4.56 814
4.62 828
4.68 804
4.74 763
4.8 786
4.86 743
4.92 721
4.98 684
5.04 704
5.1 701
5.16 701
5.22 688
5.28 696
5.34 688
5.4 665
5.46 684
5.52 668
5.58 622
5.64 681
5.7 618
5.76 663
5.82 637
5.88 671
5.94 633
6 618
6.06 619
6.12 671
6.18 645
6.24 672
6.3 654
6.36 622
6.42 620
6.48 621
6.54 623
6.6 645
6.66 667
6.72 645
6.78 638
6.84 654
6.9 594
6.96 618
7.02 647
7.08 626
7.14 607
7.2 638
7.26 632
7.32 618
7.38 619
7.44 663
7.5 629
7.56 612
7.62 662
7.68 579
7.74 660
7.8 645
7.86 656
7.92 647
7.98 710
8.04 659
8.1 643
8.16 636
8.22 670
8.28 661
8.34 699
8.4 708
8.46 725
8.52 796
8.58 749
8.64 858
8.7 903
8.76 1063
8.82 1214
8.88 1476
8.94 1517
9 1530
9.06 1102
9.12 965
9.18 933
9.24 891
9.3 942
9.36 912
9.42 825
9.48 817
9.54 802
9.6 836
9.66 863
9.72 962
9.78 1045
9.84 1227
9.9 1506
9.96 1391
10.02 1187
10.08 970
10.14 916
10.2 817
10.26 737
10.32 682
10.38 703
10.44 698
10.5 681
10.56 662
10.62 654
10.68 655
10.74 654
10.8 696
10.86 663
10.92 647
10.98 613
11.04 640
11.1 602
11.16 581
11.22 618
11.28 543
11.34 563
11.4 618
11.46 557
11.52 550
11.58 586
11.64 601
11.7 582
11.76 582
11.82 577
11.88 635
11.94 562
12 544
12.06 583
12.12 585
12.18 607
12.24 566
12.3 592
12.36 599
12.42 601
12.48 633
12.54 743
12.6 875
12.66 863
12.72 753
12.78 686
12.84 629
12.9 632
12.96 606
13.02 610
13.08 654
13.14 653
13.2 643
13.26 717
13.32 760
13.38 818
13.44 710
13.5 661
13.56 638
13.62 668
13.68 640
13.74 592
13.8 623
13.86 601
13.92 608
13.98 641
14.04 613
14.1 621
14.16 584
14.22 625
14.28 600
14.34 599
14.4 613
14.46 647
14.52 676
14.58 628
14.64 684
14.7 612
14.76 657
14.82 677
14.88 629
14.94 670
15 659
15.06 630
15.12 639
15.18 653
15.24 636
15.3 694
15.36 675
15.42 697
15.48 693
15.54 697
15.6 663
15.66 625
15.72 681
15.78 681
15.84 685
15.9 721
15.96 664
16.02 638
16.08 711
16.14 726
16.2 678
16.26 731
16.32 709
16.38 668
16.44 789
16.5 759
16.56 757
16.62 771
16.68 766
16.74 888
16.8 921
16.86 1139
16.92 1469
16.98 1789
17.04 1325
17.1 890
17.16 859
17.22 790
17.28 757
17.34 799
17.4 826
17.46 814
17.52 809
17.58 825
17.64 804
17.7 845
17.76 851
17.82 861
17.88 809
17.94 837
18 858
18.06 889
18.12 855
18.18 826
18.24 851
18.3 898
18.36 919
18.42 911
18.48 893
18.54 973
18.6 930
18.66 920
18.72 942
18.78 880
18.84 933
18.9 915
18.96 944
19.02 893
19.08 976
19.14 1005
19.2 913
19.26 941
19.32 935
19.38 985
19.44 979
19.5 1006
19.56 999
19.62 1069
19.68 1104
19.74 1091
19.8 1174
19.86 1190
19.92 1193
19.98 1145
20 1167