File: xrd-UiO-67/pxrddata/45-13.ASC
3 2186
3.06 1749
3.12 1550
3.18 1407
3.24 1394
3.3 1267
3.36 1330
3.42 1218
3.48 1276
3.54 1103
3.6 1084
3.66 1141
3.72 1072
3.78 987
3.84 1031
3.9 1005
3.96 936
4.02 981
4.08 903
4.14 897
4.2 874
4.26 821
4.32 828
4.38 826
4.44 844
4.5 816
4.56 834
4.62 805
4.68 775
4.74 832
4.8 802
4.86 847
4.92 889
4.98 897
5.04 995
5.1 1061
5.16 1220
5.22 1323
5.28 1671
5.34 2175
5.4 3014
5.46 4250
5.52 3394
5.58 2116
5.64 1604
5.7 1344
5.76 1185
5.82 1016
5.88 923
5.94 909
6 825
6.06 777
6.12 718
6.18 689
6.24 641
6.3 635
6.36 620
6.42 624
6.48 665
6.54 641
6.6 642
6.66 620
6.72 574
6.78 645
6.84 580
6.9 595
6.96 590
7.02 619
7.08 575
7.14 562
7.2 599
7.26 573
7.32 610
7.38 572
7.44 598
7.5 575
7.56 571
7.62 585
7.68 562
7.74 593
7.8 575
7.86 551
7.92 570
7.98 561
8.04 592
8.1 572
8.16 548
8.22 592
8.28 534
8.34 542
8.4 582
8.46 567
8.52 571
8.58 513
8.64 523
8.7 549
8.76 554
8.82 566
8.88 535
8.94 604
9 582
9.06 640
9.12 660
9.18 759
9.24 872
9.3 1074
9.36 1499
9.42 1278
9.48 828
9.54 729
9.6 651
9.66 610
9.72 568
9.78 604
9.84 575
9.9 589
9.96 557
10.02 556
10.08 563
10.14 529
10.2 565
10.26 556
10.32 564
10.38 545
10.44 620
10.5 582
10.56 591
10.62 647
10.68 665
10.74 752
10.8 1001
10.86 979
10.92 891
10.98 750
11.04 700
11.1 636
11.16 573
11.22 598
11.28 525
11.34 541
11.4 626
11.46 565
11.52 548
11.58 570
11.64 588
11.7 595
11.76 566
11.82 545
11.88 501
11.94 541
12 539
12.06 528
12.12 536
12.18 593
12.24 579
12.3 612
12.36 615
12.42 629
12.48 601
12.54 567
12.6 613
12.66 564
12.72 544
12.78 563
12.84 576
12.9 615
12.96 552
13.02 602
13.08 591
13.14 556
13.2 538
13.26 603
13.32 565
13.38 602
13.44 629
13.5 588
13.56 627
13.62 580
13.68 599
13.74 583
13.8 602
13.86 543
13.92 591
13.98 583
14.04 648
14.1 608
14.16 593
14.22 587
14.28 686
14.34 697
14.4 642
14.46 623
14.52 653
14.58 671
14.64 619
14.7 632
14.76 628
14.82 652
14.88 635
14.94 633
15 619
15.06 640
15.12 638
15.18 643
15.24 669
15.3 664
15.36 651
15.42 656
15.48 678
15.54 662
15.6 652
15.66 679
15.72 727
15.78 672
15.84 705
15.9 690
15.96 709
16.02 708
16.08 667
16.14 719
16.2 724
16.26 718
16.32 721
16.38 785
16.44 756
16.5 686
16.56 737
16.62 751
16.68 738
16.74 778
16.8 785
16.86 816
16.92 890
16.98 959
17.04 983
17.1 858
17.16 817
17.22 861
17.28 782
17.34 853
17.4 898
17.46 847
17.52 818
17.58 831
17.64 846
17.7 858
17.76 805
17.82 882
17.88 869
17.94 817
18 868
18.06 879
18.12 871
18.18 864
18.24 876
18.3 934
18.36 926
18.42 895
18.48 885
18.54 932
18.6 972
18.66 1018
18.72 1013
18.78 1031
18.84 975
18.9 1027
18.96 1000
19.02 1028
19.08 1050
19.14 1003
19.2 1034
19.26 1027
19.32 1208
19.38 1112
19.44 1318
19.5 1310
19.56 1218
19.62 1215
19.68 1142
19.74 1149
19.8 1114
19.86 1121
19.92 1106
19.98 1116
20 1187