File: xrd-UiO-67/pxrddata/45-20.ASC
3 2234
3.06 1873
3.12 1583
3.18 1519
3.24 1388
3.3 1395
3.36 1352
3.42 1296
3.48 1215
3.54 1256
3.6 1143
3.66 1145
3.72 1088
3.78 1106
3.84 1030
3.9 995
3.96 960
4.02 951
4.08 910
4.14 938
4.2 898
4.26 849
4.32 828
4.38 820
4.44 828
4.5 815
4.56 770
4.62 775
4.68 752
4.74 774
4.8 709
4.86 700
4.92 692
4.98 747
5.04 711
5.1 698
5.16 705
5.22 708
5.28 714
5.34 675
5.4 715
5.46 669
5.52 624
5.58 642
5.64 674
5.7 674
5.76 664
5.82 638
5.88 627
5.94 628
6 616
6.06 626
6.12 644
6.18 690
6.24 656
6.3 639
6.36 621
6.42 660
6.48 679
6.54 686
6.6 610
6.66 669
6.72 648
6.78 610
6.84 624
6.9 601
6.96 635
7.02 610
7.08 681
7.14 604
7.2 620
7.26 673
7.32 673
7.38 637
7.44 640
7.5 628
7.56 646
7.62 650
7.68 710
7.74 664
7.8 732
7.86 715
7.92 758
7.98 698
8.04 660
8.1 711
8.16 728
8.22 680
8.28 744
8.34 771
8.4 755
8.46 766
8.52 779
8.58 799
8.64 816
8.7 849
8.76 900
8.82 1009
8.88 1078
8.94 1225
9 1206
9.06 1178
9.12 1082
9.18 1082
9.24 1032
9.3 1041
9.36 1029
9.42 915
9.48 837
9.54 848
9.6 813
9.66 870
9.72 919
9.78 948
9.84 1107
9.9 1237
9.96 1391
10.02 1259
10.08 1023
10.14 927
10.2 808
10.26 817
10.32 728
10.38 747
10.44 740
10.5 724
10.56 690
10.62 678
10.68 711
10.74 719
10.8 701
10.86 681
10.92 744
10.98 605
11.04 631
11.1 596
11.16 594
11.22 606
11.28 577
11.34 598
11.4 540
11.46 603
11.52 593
11.58 577
11.64 590
11.7 583
11.76 586
11.82 616
11.88 601
11.94 526
12 558
12.06 587
12.12 600
12.18 595
12.24 617
12.3 615
12.36 601
12.42 665
12.48 704
12.54 823
12.6 918
12.66 886
12.72 824
12.78 702
12.84 637
12.9 648
12.96 627
13.02 629
13.08 598
13.14 618
13.2 616
13.26 676
13.32 599
13.38 641
13.44 605
13.5 636
13.56 623
13.62 613
13.68 622
13.74 637
13.8 636
13.86 637
13.92 667
13.98 647
14.04 627
14.1 648
14.16 627
14.22 650
14.28 656
14.34 675
14.4 648
14.46 702
14.52 653
14.58 691
14.64 649
14.7 650
14.76 675
14.82 641
14.88 643
14.94 668
15 677
15.06 667
15.12 677
15.18 633
15.24 691
15.3 675
15.36 696
15.42 679
15.48 675
15.54 712
15.6 694
15.66 676
15.72 738
15.78 689
15.84 693
15.9 766
15.96 689
16.02 685
16.08 724
16.14 692
16.2 739
16.26 742
16.32 780
16.38 730
16.44 760
16.5 753
16.56 770
16.62 816
16.68 804
16.74 867
16.8 899
16.86 989
16.92 1210
16.98 1273
17.04 1090
17.1 851
17.16 830
17.22 838
17.28 852
17.34 859
17.4 821
17.46 863
17.52 901
17.58 861
17.64 861
17.7 938
17.76 852
17.82 895
17.88 914
17.94 960
18 933
18.06 932
18.12 968
18.18 989
18.24 1016
18.3 960
18.36 955
18.42 957
18.48 976
18.54 988
18.6 1031
18.66 1000
18.72 1018
18.78 999
18.84 1031
18.9 993
18.96 1050
19.02 1028
19.08 1022
19.14 1047
19.2 1063
19.26 1073
19.32 1088
19.38 1109
19.44 1108
19.5 1144
19.56 1128
19.62 1129
19.68 1183
19.74 1163
19.8 1271
19.86 1289
19.92 1388
19.98 1319
20 1320