File: xrd-UiO-67/pxrddata/45-2.ASC
3 2214
3.06 1812
3.12 1527
3.18 1424
3.24 1292
3.3 1263
3.36 1208
3.42 1175
3.48 1156
3.54 1097
3.6 1069
3.66 1117
3.72 1028
3.78 958
3.84 951
3.9 906
3.96 918
4.02 958
4.08 928
4.14 872
4.2 844
4.26 780
4.32 758
4.38 747
4.44 747
4.5 741
4.56 742
4.62 711
4.68 706
4.74 690
4.8 712
4.86 636
4.92 678
4.98 701
5.04 686
5.1 674
5.16 767
5.22 748
5.28 794
5.34 886
5.4 1029
5.46 927
5.52 919
5.58 1028
5.64 1197
5.7 1518
5.76 2154
5.82 1410
5.88 728
5.94 628
6 589
6.06 579
6.12 591
6.18 603
6.24 613
6.3 609
6.36 613
6.42 613
6.48 648
6.54 697
6.6 772
6.66 754
6.72 702
6.78 694
6.84 591
6.9 560
6.96 529
7.02 546
7.08 529
7.14 520
7.2 546
7.26 549
7.32 546
7.38 523
7.44 543
7.5 588
7.56 516
7.62 547
7.68 517
7.74 539
7.8 580
7.86 551
7.92 552
7.98 567
8.04 556
8.1 573
8.16 574
8.22 549
8.28 543
8.34 531
8.4 522
8.46 540
8.52 539
8.58 530
8.64 562
8.7 516
8.76 533
8.82 551
8.88 500
8.94 541
9 595
9.06 636
9.12 670
9.18 749
9.24 905
9.3 1320
9.36 940
9.42 679
9.48 515
9.54 511
9.6 601
9.66 549
9.72 541
9.78 569
9.84 551
9.9 565
9.96 555
10.02 579
10.08 622
10.14 736
10.2 671
10.26 586
10.32 535
10.38 574
10.44 510
10.5 525
10.56 549
10.62 593
10.68 669
10.74 729
10.8 756
10.86 794
10.92 1165
10.98 943
11.04 656
11.1 575
11.16 565
11.22 583
11.28 575
11.34 600
11.4 700
11.46 823
11.52 698
11.58 637
11.64 515
11.7 501
11.76 502
11.82 544
11.88 529
11.94 533
12 543
12.06 531
12.12 608
12.18 590
12.24 558
12.3 573
12.36 525
12.42 552
12.48 530
12.54 508
12.6 539
12.66 505
12.72 530
12.78 576
12.84 528
12.9 537
12.96 497
13.02 542
13.08 537
13.14 531
13.2 547
13.26 556
13.32 552
13.38 536
13.44 581
13.5 505
13.56 510
13.62 525
13.68 545
13.74 566
13.8 525
13.86 551
13.92 520
13.98 563
14.04 551
14.1 553
14.16 587
14.22 621
14.28 603
14.34 634
14.4 662
14.46 610
14.52 605
14.58 586
14.64 631
14.7 570
14.76 635
14.82 680
14.88 650
14.94 580
15 577
15.06 602
15.12 569
15.18 609
15.24 626
15.3 614
15.36 631
15.42 600
15.48 653
15.54 607
15.6 635
15.66 624
15.72 641
15.78 652
15.84 623
15.9 634
15.96 627
16.02 673
16.08 633
16.14 695
16.2 744
16.26 698
16.32 680
16.38 694
16.44 686
16.5 685
16.56 656
16.62 703
16.68 645
16.74 687
16.8 721
16.86 740
16.92 890
16.98 850
17.04 774
17.1 745
17.16 783
17.22 878
17.28 839
17.34 780
17.4 777
17.46 761
17.52 810
17.58 781
17.64 765
17.7 838
17.76 800
17.82 914
17.88 802
17.94 767
18 839
18.06 832
18.12 888
18.18 796
18.24 848
18.3 843
18.36 791
18.42 831
18.48 852
18.54 920
18.6 961
18.66 956
18.72 954
18.78 956
18.84 904
18.9 984
18.96 912
19.02 1008
19.08 1152
19.14 1122
19.2 972
19.26 946
19.32 1029
19.38 1155
19.44 1166
19.5 1255
19.56 1227
19.62 1097
19.68 1041
19.74 1073
19.8 1190
19.86 1253
19.92 1129
19.98 1106
20 1043