File: xrd-UiO-67/pxrddata/45-27.ASC
3 2499
3.06 2145
3.12 1852
3.18 1795
3.24 1752
3.3 1600
3.36 1598
3.42 1590
3.48 1571
3.54 1580
3.6 1492
3.66 1462
3.72 1446
3.78 1365
3.84 1377
3.9 1377
3.96 1377
4.02 1361
4.08 1321
4.14 1317
4.2 1339
4.26 1328
4.32 1360
4.38 1368
4.44 1405
4.5 1244
4.56 1277
4.62 1367
4.68 1297
4.74 1347
4.8 1295
4.86 1354
4.92 1400
4.98 1431
5.04 1455
5.1 1512
5.16 1547
5.22 1619
5.28 1713
5.34 1873
5.4 2151
5.46 2253
5.52 1860
5.58 1610
5.64 1488
5.7 1447
5.76 1287
5.82 1356
5.88 1275
5.94 1267
6 1263
6.06 1138
6.12 1219
6.18 1165
6.24 1167
6.3 1134
6.36 1132
6.42 1136
6.48 1105
6.54 1163
6.6 1127
6.66 1108
6.72 1117
6.78 1160
6.84 1130
6.9 1138
6.96 1104
7.02 1081
7.08 1077
7.14 1134
7.2 1095
7.26 1061
7.32 1062
7.38 1091
7.44 1113
7.5 1067
7.56 1084
7.62 1080
7.68 1016
7.74 1066
7.8 1030
7.86 1072
7.92 1031
7.98 1074
8.04 1012
8.1 1020
8.16 1081
8.22 999
8.28 1061
8.34 1023
8.4 1002
8.46 1005
8.52 1051
8.58 1066
8.64 1133
8.7 1049
8.76 1154
8.82 1142
8.88 1158
8.94 1193
9 1138
9.06 1169
9.12 1117
9.18 1227
9.24 1261
9.3 1280
9.36 1472
9.42 1489
9.48 1290
9.54 1125
9.6 1141
9.66 1096
9.72 1112
9.78 1091
9.84 1017
9.9 983
9.96 1057
10.02 1030
10.08 990
10.14 998
10.2 1071
10.26 1054
10.32 1001
10.38 1049
10.44 1083
10.5 1045
10.56 1011
10.62 1033
10.68 1034
10.74 1013
10.8 1065
10.86 1114
10.92 1087
10.98 1048
11.04 963
11.1 968
11.16 935
11.22 1008
11.28 979
11.34 964
11.4 970
11.46 1019
11.52 1016
11.58 960
11.64 938
11.7 933
11.76 949
11.82 975
11.88 947
11.94 936
12 984
12.06 1034
12.12 947
12.18 944
12.24 957
12.3 941
12.36 944
12.42 955
12.48 982
12.54 985
12.6 1005
12.66 944
12.72 966
12.78 950
12.84 1071
12.9 961
12.96 979
13.02 987
13.08 1014
13.14 986
13.2 993
13.26 978
13.32 968
13.38 979
13.44 962
13.5 1021
13.56 1020
13.62 979
13.68 981
13.74 988
13.8 1000
13.86 976
13.92 1002
13.98 1041
14.04 1010
14.1 1087
14.16 1041
14.22 1015
14.28 1061
14.34 1123
14.4 1053
14.46 1051
14.52 1049
14.58 1045
14.64 1076
14.7 1037
14.76 1033
14.82 1007
14.88 1023
14.94 1091
15 1085
15.06 1037
15.12 1024
15.18 1063
15.24 1008
15.3 1063
15.36 1111
15.42 1032
15.48 1075
15.54 1100
15.6 1078
15.66 1004
15.72 1121
15.78 1096
15.84 1101
15.9 1084
15.96 1164
16.02 1093
16.08 1110
16.14 1140
16.2 1119
16.26 1148
16.32 1187
16.38 1145
16.44 1164
16.5 1175
16.56 1176
16.62 1199
16.68 1220
16.74 1277
16.8 1349
16.86 1518
16.92 1866
16.98 2292
17.04 2100
17.1 1477
17.16 1337
17.22 1272
17.28 1277
17.34 1266
17.4 1348
17.46 1370
17.52 1337
17.58 1341
17.64 1337
17.7 1359
17.76 1382
17.82 1324
17.88 1382
17.94 1404
18 1380
18.06 1425
18.12 1371
18.18 1448
18.24 1423
18.3 1422
18.36 1480
18.42 1467
18.48 1492
18.54 1487
18.6 1483
18.66 1570
18.72 1583
18.78 1567
18.84 1619
18.9 1557
18.96 1612
19.02 1599
19.08 1591
19.14 1559
19.2 1683
19.26 1641
19.32 1680
19.38 1675
19.44 1708
19.5 1656
19.56 1719
19.62 1767
19.68 1770
19.74 1735
19.8 1755
19.86 1791
19.92 1786
19.98 1751
20 1788