File: xrd-UiO-67/pxrddata/45-3.ASC
3 2612
3.06 2183
3.12 1885
3.18 1779
3.24 1693
3.3 1656
3.36 1484
3.42 1443
3.48 1381
3.54 1368
3.6 1334
3.66 1263
3.72 1266
3.78 1199
3.84 1202
3.9 1202
3.96 1099
4.02 1092
4.08 1171
4.14 1157
4.2 994
4.26 942
4.32 908
4.38 903
4.44 878
4.5 856
4.56 889
4.62 780
4.68 753
4.74 823
4.8 781
4.86 788
4.92 757
4.98 815
5.04 762
5.1 831
5.16 810
5.22 847
5.28 801
5.34 888
5.4 1149
5.46 857
5.52 871
5.58 947
5.64 1063
5.7 1230
5.76 1735
5.82 1107
5.88 703
5.94 647
6 611
6.06 650
6.12 629
6.18 598
6.24 618
6.3 595
6.36 620
6.42 654
6.48 614
6.54 656
6.6 622
6.66 661
6.72 710
6.78 722
6.84 641
6.9 619
6.96 594
7.02 599
7.08 620
7.14 589
7.2 616
7.26 563
7.32 583
7.38 569
7.44 592
7.5 604
7.56 597
7.62 567
7.68 614
7.74 621
7.8 613
7.86 547
7.92 558
7.98 568
8.04 632
8.1 634
8.16 640
8.22 610
8.28 607
8.34 585
8.4 608
8.46 572
8.52 603
8.58 585
8.64 550
8.7 593
8.76 623
8.82 555
8.88 592
8.94 609
9 598
9.06 610
9.12 605
9.18 647
9.24 669
9.3 789
9.36 823
9.42 605
9.48 600
9.54 592
9.6 593
9.66 606
9.72 649
9.78 629
9.84 574
9.9 585
9.96 598
10.02 606
10.08 605
10.14 595
10.2 688
10.26 590
10.32 602
10.38 568
10.44 569
10.5 572
10.56 546
10.62 611
10.68 628
10.74 610
10.8 618
10.86 614
10.92 682
10.98 743
11.04 595
11.1 575
11.16 576
11.22 586
11.28 600
11.34 577
11.4 576
11.46 689
11.52 673
11.58 625
11.64 594
11.7 592
11.76 631
11.82 570
11.88 606
11.94 565
12 583
12.06 577
12.12 607
12.18 583
12.24 618
12.3 580
12.36 616
12.42 575
12.48 564
12.54 601
12.6 624
12.66 572
12.72 562
12.78 583
12.84 595
12.9 572
12.96 624
13.02 621
13.08 598
13.14 628
13.2 614
13.26 631
13.32 629
13.38 659
13.44 660
13.5 646
13.56 617
13.62 669
13.68 655
13.74 659
13.8 619
13.86 624
13.92 651
13.98 584
14.04 632
14.1 658
14.16 669
14.22 659
14.28 648
14.34 687
14.4 659
14.46 675
14.52 660
14.58 689
14.64 665
14.7 689
14.76 699
14.82 763
14.88 740
14.94 699
15 707
15.06 681
15.12 742
15.18 713
15.24 744
15.3 728
15.36 759
15.42 787
15.48 735
15.54 781
15.6 773
15.66 767
15.72 798
15.78 792
15.84 775
15.9 760
15.96 802
16.02 809
16.08 731
16.14 832
16.2 770
16.26 847
16.32 877
16.38 848
16.44 905
16.5 885
16.56 905
16.62 907
16.68 855
16.74 948
16.8 1044
16.86 1107
16.92 1414
16.98 1960
17.04 1714
17.1 1054
17.16 959
17.22 1016
17.28 985
17.34 956
17.4 950
17.46 961
17.52 998
17.58 945
17.64 1000
17.7 985
17.76 1053
17.82 1003
17.88 988
17.94 1037
18 1083
18.06 1074
18.12 1018
18.18 1030
18.24 1110
18.3 1054
18.36 1092
18.42 1068
18.48 1089
18.54 1141
18.6 1182
18.66 1093
18.72 1124
18.78 1222
18.84 1218
18.9 1121
18.96 1219
19.02 1178
19.08 1255
19.14 1277
19.2 1208
19.26 1219
19.32 1260
19.38 1223
19.44 1326
19.5 1282
19.56 1278
19.62 1317
19.68 1305
19.74 1201
19.8 1337
19.86 1341
19.92 1347
19.98 1256
20 1328