File: xrd-UiO-67/pxrddata/45-5.ASC
3 2444
3.06 2026
3.12 1730
3.18 1679
3.24 1614
3.3 1518
3.36 1461
3.42 1421
3.48 1354
3.54 1240
3.6 1225
3.66 1194
3.72 1119
3.78 1139
3.84 1083
3.9 1049
3.96 1049
4.02 1008
4.08 940
4.14 924
4.2 898
4.26 879
4.32 818
4.38 883
4.44 844
4.5 753
4.56 800
4.62 767
4.68 735
4.74 738
4.8 714
4.86 694
4.92 759
4.98 701
5.04 695
5.1 667
5.16 670
5.22 641
5.28 659
5.34 659
5.4 633
5.46 663
5.52 651
5.58 638
5.64 680
5.7 665
5.76 669
5.82 637
5.88 617
5.94 665
6 625
6.06 616
6.12 676
6.18 653
6.24 615
6.3 658
6.36 615
6.42 659
6.48 667
6.54 605
6.6 650
6.66 676
6.72 664
6.78 610
6.84 653
6.9 599
6.96 634
7.02 647
7.08 662
7.14 653
7.2 674
7.26 656
7.32 654
7.38 660
7.44 658
7.5 646
7.56 663
7.62 590
7.68 705
7.74 656
7.8 642
7.86 666
7.92 631
7.98 640
8.04 622
8.1 667
8.16 656
8.22 682
8.28 671
8.34 713
8.4 691
8.46 722
8.52 753
8.58 738
8.64 765
8.7 809
8.76 837
8.82 906
8.88 971
8.94 1183
9 1235
9.06 1129
9.12 1148
9.18 1021
9.24 978
9.3 993
9.36 977
9.42 882
9.48 804
9.54 789
9.6 798
9.66 751
9.72 839
9.78 904
9.84 997
9.9 1033
9.96 1142
10.02 1237
10.08 1070
10.14 974
10.2 836
10.26 785
10.32 811
10.38 768
10.44 766
10.5 703
10.56 712
10.62 746
10.68 724
10.74 711
10.8 691
10.86 659
10.92 707
10.98 650
11.04 632
11.1 621
11.16 581
11.22 606
11.28 585
11.34 562
11.4 591
11.46 543
11.52 506
11.58 540
11.64 543
11.7 542
11.76 517
11.82 512
11.88 576
11.94 541
12 549
12.06 557
12.12 534
12.18 564
12.24 576
12.3 555
12.36 563
12.42 571
12.48 671
12.54 726
12.6 818
12.66 886
12.72 828
12.78 710
12.84 633
12.9 661
12.96 583
13.02 555
13.08 576
13.14 644
13.2 615
13.26 660
13.32 627
13.38 565
13.44 558
13.5 612
13.56 589
13.62 579
13.68 646
13.74 606
13.8 591
13.86 564
13.92 585
13.98 586
14.04 577
14.1 584
14.16 590
14.22 553
14.28 571
14.34 622
14.4 596
14.46 654
14.52 633
14.58 611
14.64 678
14.7 603
14.76 610
14.82 611
14.88 613
14.94 553
15 675
15.06 627
15.12 641
15.18 644
15.24 621
15.3 628
15.36 648
15.42 644
15.48 631
15.54 647
15.6 675
15.66 648
15.72 656
15.78 625
15.84 619
15.9 657
15.96 680
16.02 664
16.08 698
16.14 681
16.2 710
16.26 686
16.32 655
16.38 676
16.44 747
16.5 690
16.56 708
16.62 790
16.68 697
16.74 792
16.8 791
16.86 878
16.92 1087
16.98 1422
17.04 1379
17.1 968
17.16 841
17.22 786
17.28 771
17.34 817
17.4 794
17.46 773
17.52 817
17.58 787
17.64 787
17.7 817
17.76 851
17.82 868
17.88 855
17.94 879
18 839
18.06 892
18.12 846
18.18 898
18.24 897
18.3 871
18.36 927
18.42 956
18.48 933
18.54 915
18.6 915
18.66 970
18.72 952
18.78 916
18.84 936
18.9 1006
18.96 1008
19.02 989
19.08 997
19.14 1003
19.2 945
19.26 1010
19.32 965
19.38 1009
19.44 1003
19.5 1029
19.56 1009
19.62 1033
19.68 1126
19.74 1123
19.8 1138
19.86 1139
19.92 1191
19.98 1228
20 1241