File: xrd-UiO-67/pxrddata/45-6.ASC
3 2349
3.06 1872
3.12 1647
3.18 1509
3.24 1535
3.3 1475
3.36 1369
3.42 1394
3.48 1288
3.54 1224
3.6 1329
3.66 1164
3.72 1189
3.78 1181
3.84 1138
3.9 1157
3.96 1123
4.02 1123
4.08 1187
4.14 1137
4.2 1034
4.26 1024
4.32 956
4.38 1002
4.44 980
4.5 1037
4.56 1037
4.62 1023
4.68 1015
4.74 1047
4.8 991
4.86 975
4.92 980
4.98 1064
5.04 1018
5.1 1042
5.16 1105
5.22 1162
5.28 1299
5.34 1387
5.4 1749
5.46 1524
5.52 1185
5.58 1082
5.64 1108
5.7 1040
5.76 1000
5.82 878
5.88 890
5.94 838
6 777
6.06 764
6.12 756
6.18 764
6.24 722
6.3 699
6.36 698
6.42 736
6.48 698
6.54 657
6.6 706
6.66 727
6.72 714
6.78 704
6.84 644
6.9 671
6.96 679
7.02 672
7.08 654
7.14 637
7.2 623
7.26 670
7.32 695
7.38 622
7.44 685
7.5 667
7.56 673
7.62 688
7.68 659
7.74 689
7.8 683
7.86 689
7.92 688
7.98 677
8.04 690
8.1 662
8.16 617
8.22 621
8.28 631
8.34 649
8.4 665
8.46 632
8.52 693
8.58 657
8.64 657
8.7 621
8.76 659
8.82 669
8.88 669
8.94 694
9 690
9.06 776
9.12 688
9.18 707
9.24 741
9.3 920
9.36 887
9.42 713
9.48 718
9.54 672
9.6 650
9.66 667
9.72 632
9.78 633
9.84 674
9.9 641
9.96 666
10.02 666
10.08 638
10.14 665
10.2 629
10.26 627
10.32 630
10.38 626
10.44 603
10.5 714
10.56 627
10.62 686
10.68 677
10.74 780
10.8 770
10.86 711
10.92 684
10.98 694
11.04 667
11.1 692
11.16 635
11.22 624
11.28 620
11.34 616
11.4 606
11.46 609
11.52 688
11.58 605
11.64 635
11.7 657
11.76 672
11.82 625
11.88 660
11.94 630
12 616
12.06 629
12.12 653
12.18 665
12.24 707
12.3 677
12.36 629
12.42 644
12.48 642
12.54 647
12.6 663
12.66 626
12.72 648
12.78 661
12.84 683
12.9 740
12.96 653
13.02 667
13.08 713
13.14 677
13.2 690
13.26 712
13.32 713
13.38 622
13.44 692
13.5 652
13.56 624
13.62 688
13.68 698
13.74 713
13.8 720
13.86 694
13.92 692
13.98 751
14.04 737
14.1 727
14.16 712
14.22 737
14.28 732
14.34 758
14.4 720
14.46 752
14.52 701
14.58 781
14.64 736
14.7 724
14.76 749
14.82 767
14.88 761
14.94 814
15 775
15.06 809
15.12 766
15.18 840
15.24 797
15.3 833
15.36 807
15.42 827
15.48 756
15.54 852
15.6 828
15.66 869
15.72 871
15.78 875
15.84 886
15.9 856
15.96 866
16.02 885
16.08 921
16.14 877
16.2 932
16.26 911
16.32 903
16.38 1017
16.44 938
16.5 925
16.56 944
16.62 914
16.68 987
16.74 1030
16.8 1065
16.86 1158
16.92 1486
16.98 1983
17.04 1683
17.1 1182
17.16 1040
17.22 1103
17.28 1082
17.34 1047
17.4 1055
17.46 1067
17.52 1116
17.58 1091
17.64 1115
17.7 1149
17.76 1174
17.82 1148
17.88 1167
17.94 1146
18 1110
18.06 1165
18.12 1158
18.18 1147
18.24 1200
18.3 1208
18.36 1248
18.42 1204
18.48 1208
18.54 1273
18.6 1273
18.66 1353
18.72 1338
18.78 1300
18.84 1314
18.9 1300
18.96 1383
19.02 1321
19.08 1383
19.14 1322
19.2 1336
19.26 1425
19.32 1398
19.38 1394
19.44 1489
19.5 1517
19.56 1413
19.62 1369
19.68 1441
19.74 1383
19.8 1444
19.86 1479
19.92 1475
19.98 1493
20 1456