File: xrd-UiO-67/pxrddata/45-7.ASC
3 2265
3.06 1741
3.12 1543
3.18 1501
3.24 1394
3.3 1430
3.36 1369
3.42 1331
3.48 1233
3.54 1223
3.6 1127
3.66 1132
3.72 1138
3.78 1093
3.84 1077
3.9 1054
3.96 967
4.02 1003
4.08 928
4.14 866
4.2 878
4.26 890
4.32 833
4.38 848
4.44 819
4.5 839
4.56 815
4.62 807
4.68 774
4.74 755
4.8 723
4.86 761
4.92 707
4.98 729
5.04 730
5.1 691
5.16 635
5.22 709
5.28 684
5.34 777
5.4 712
5.46 692
5.52 691
5.58 669
5.64 689
5.7 625
5.76 670
5.82 658
5.88 707
5.94 668
6 737
6.06 675
6.12 658
6.18 640
6.24 675
6.3 682
6.36 699
6.42 693
6.48 686
6.54 702
6.6 723
6.66 708
6.72 695
6.78 680
6.84 750
6.9 711
6.96 718
7.02 665
7.08 738
7.14 678
7.2 736
7.26 696
7.32 698
7.38 685
7.44 730
7.5 717
7.56 789
7.62 743
7.68 783
7.74 771
7.8 742
7.86 809
7.92 850
7.98 785
8.04 789
8.1 778
8.16 754
8.22 759
8.28 790
8.34 798
8.4 885
8.46 895
8.52 895
8.58 907
8.64 961
8.7 1011
8.76 1121
8.82 1244
8.88 1469
8.94 1707
9 1855
9.06 1692
9.12 1575
9.18 1448
9.24 1296
9.3 1340
9.36 1367
9.42 1143
9.48 1072
9.54 1025
9.6 1030
9.66 1153
9.72 1206
9.78 1226
9.84 1395
9.9 1699
9.96 1933
10.02 2057
10.08 1610
10.14 1319
10.2 1137
10.26 1047
10.32 1017
10.38 1012
10.44 980
10.5 918
10.56 951
10.62 925
10.68 957
10.74 921
10.8 903
10.86 927
10.92 917
10.98 872
11.04 819
11.1 792
11.16 721
11.22 739
11.28 737
11.34 759
11.4 698
11.46 707
11.52 691
11.58 710
11.64 702
11.7 696
11.76 722
11.82 723
11.88 720
11.94 706
12 723
12.06 714
12.12 664
12.18 701
12.24 738
12.3 766
12.36 770
12.42 827
12.48 848
12.54 1062
12.6 1154
12.66 1250
12.72 1202
12.78 1022
12.84 861
12.9 807
12.96 792
13.02 786
13.08 800
13.14 818
13.2 826
13.26 804
13.32 806
13.38 821
13.44 815
13.5 757
13.56 771
13.62 781
13.68 788
13.74 772
13.8 755
13.86 766
13.92 740
13.98 746
14.04 825
14.1 781
14.16 784
14.22 788
14.28 767
14.34 838
14.4 781
14.46 832
14.52 854
14.58 895
14.64 829
14.7 826
14.76 838
14.82 868
14.88 841
14.94 803
15 830
15.06 828
15.12 859
15.18 846
15.24 891
15.3 836
15.36 865
15.42 831
15.48 907
15.54 875
15.6 823
15.66 873
15.72 870
15.78 871
15.84 889
15.9 895
15.96 909
16.02 941
16.08 914
16.14 921
16.2 930
16.26 930
16.32 931
16.38 943
16.44 981
16.5 981
16.56 986
16.62 1002
16.68 1043
16.74 1095
16.8 1120
16.86 1245
16.92 1492
16.98 1920
17.04 1871
17.1 1268
17.16 1132
17.22 1107
17.28 1142
17.34 1102
17.4 1108
17.46 1120
17.52 1082
17.58 1125
17.64 1146
17.7 1103
17.76 1180
17.82 1181
17.88 1189
17.94 1206
18 1197
18.06 1262
18.12 1240
18.18 1242
18.24 1335
18.3 1255
18.36 1257
18.42 1300
18.48 1321
18.54 1306
18.6 1369
18.66 1391
18.72 1381
18.78 1352
18.84 1348
18.9 1344
18.96 1301
19.02 1382
19.08 1416
19.14 1383
19.2 1377
19.26 1440
19.32 1457
19.38 1475
19.44 1460
19.5 1509
19.56 1461
19.62 1563
19.68 1497
19.74 1592
19.8 1647
19.86 1654
19.92 1684
19.98 1842
20 1844