File: xrd-UiO-67/pxrddata/45-8.ASC
3 2208
3.06 1772
3.12 1646
3.18 1497
3.24 1487
3.3 1402
3.36 1357
3.42 1320
3.48 1234
3.54 1214
3.6 1183
3.66 1167
3.72 1154
3.78 1082
3.84 1054
3.9 1025
3.96 1004
4.02 1004
4.08 932
4.14 949
4.2 898
4.26 877
4.32 886
4.38 910
4.44 849
4.5 834
4.56 816
4.62 855
4.68 825
4.74 836
4.8 828
4.86 724
4.92 781
4.98 805
5.04 750
5.1 769
5.16 758
5.22 722
5.28 715
5.34 721
5.4 702
5.46 690
5.52 735
5.58 718
5.64 681
5.7 690
5.76 676
5.82 673
5.88 697
5.94 693
6 676
6.06 723
6.12 734
6.18 700
6.24 679
6.3 647
6.36 690
6.42 669
6.48 692
6.54 637
6.6 666
6.66 681
6.72 655
6.78 632
6.84 659
6.9 633
6.96 656
7.02 658
7.08 649
7.14 600
7.2 650
7.26 627
7.32 644
7.38 650
7.44 677
7.5 652
7.56 644
7.62 671
7.68 696
7.74 640
7.8 629
7.86 636
7.92 638
7.98 694
8.04 634
8.1 654
8.16 637
8.22 599
8.28 658
8.34 611
8.4 659
8.46 599
8.52 627
8.58 621
8.64 662
8.7 658
8.76 639
8.82 602
8.88 624
8.94 609
9 648
9.06 639
9.12 594
9.18 603
9.24 657
9.3 611
9.36 580
9.42 629
9.48 618
9.54 622
9.6 644
9.66 623
9.72 574
9.78 589
9.84 685
9.9 605
9.96 634
10.02 602
10.08 659
10.14 623
10.2 584
10.26 650
10.32 594
10.38 607
10.44 653
10.5 605
10.56 627
10.62 641
10.68 587
10.74 611
10.8 624
10.86 605
10.92 602
10.98 556
11.04 629
11.1 624
11.16 662
11.22 640
11.28 622
11.34 552
11.4 558
11.46 598
11.52 603
11.58 610
11.64 621
11.7 601
11.76 596
11.82 606
11.88 636
11.94 591
12 637
12.06 592
12.12 577
12.18 603
12.24 582
12.3 607
12.36 580
12.42 618
12.48 633
12.54 639
12.6 626
12.66 647
12.72 618
12.78 628
12.84 623
12.9 620
12.96 594
13.02 650
13.08 642
13.14 624
13.2 649
13.26 647
13.32 641
13.38 635
13.44 664
13.5 657
13.56 640
13.62 711
13.68 608
13.74 669
13.8 619
13.86 621
13.92 630
13.98 625
14.04 634
14.1 654
14.16 670
14.22 670
14.28 750
14.34 650
14.4 658
14.46 709
14.52 694
14.58 699
14.64 696
14.7 708
14.76 674
14.82 682
14.88 662
14.94 678
15 713
15.06 734
15.12 700
15.18 748
15.24 702
15.3 711
15.36 724
15.42 734
15.48 704
15.54 725
15.6 773
15.66 758
15.72 773
15.78 752
15.84 747
15.9 732
15.96 784
16.02 758
16.08 772
16.14 744
16.2 809
16.26 781
16.32 759
16.38 763
16.44 866
16.5 884
16.56 862
16.62 864
16.68 855
16.74 925
16.8 975
16.86 1253
16.92 1618
16.98 1732
17.04 1288
17.1 1006
17.16 896
17.22 927
17.28 838
17.34 932
17.4 934
17.46 906
17.52 891
17.58 959
17.64 949
17.7 932
17.76 989
17.82 918
17.88 954
17.94 993
18 1010
18.06 1042
18.12 998
18.18 987
18.24 1078
18.3 1046
18.36 1081
18.42 1060
18.48 1061
18.54 1037
18.6 1070
18.66 1056
18.72 1153
18.78 1136
18.84 1103
18.9 1223
18.96 1165
19.02 1173
19.08 1167
19.14 1201
19.2 1108
19.26 1222
19.32 1207
19.38 1152
19.44 1184
19.5 1240
19.56 1204
19.62 1314
19.68 1243
19.74 1350
19.8 1263
19.86 1240
19.92 1327
19.98 1261
20 1281