File: xrd-UiO-67/pxrddata/45-9.ASC
3 2335
3.06 1931
3.12 1609
3.18 1550
3.24 1472
3.3 1398
3.36 1351
3.42 1275
3.48 1277
3.54 1221
3.6 1238
3.66 1151
3.72 1097
3.78 1097
3.84 1076
3.9 976
3.96 1067
4.02 968
4.08 908
4.14 962
4.2 910
4.26 889
4.32 848
4.38 798
4.44 779
4.5 743
4.56 786
4.62 753
4.68 734
4.74 739
4.8 707
4.86 710
4.92 661
4.98 726
5.04 681
5.1 704
5.16 605
5.22 651
5.28 653
5.34 611
5.4 652
5.46 610
5.52 637
5.58 629
5.64 613
5.7 617
5.76 677
5.82 637
5.88 617
5.94 610
6 649
6.06 605
6.12 587
6.18 584
6.24 605
6.3 623
6.36 626
6.42 604
6.48 594
6.54 584
6.6 613
6.66 606
6.72 614
6.78 598
6.84 579
6.9 620
6.96 597
7.02 607
7.08 587
7.14 636
7.2 600
7.26 624
7.32 616
7.38 575
7.44 591
7.5 641
7.56 586
7.62 599
7.68 627
7.74 614
7.8 594
7.86 590
7.92 603
7.98 656
8.04 585
8.1 602
8.16 626
8.22 633
8.28 628
8.34 612
8.4 630
8.46 668
8.52 647
8.58 684
8.64 782
8.7 859
8.76 863
8.82 1089
8.88 1118
8.94 1181
9 1074
9.06 876
9.12 842
9.18 803
9.24 805
9.3 777
9.36 731
9.42 679
9.48 715
9.54 725
9.6 777
9.66 759
9.72 808
9.78 926
9.84 1009
9.9 1214
9.96 1149
10.02 940
10.08 776
10.14 758
10.2 637
10.26 616
10.32 626
10.38 647
10.44 625
10.5 611
10.56 606
10.62 636
10.68 603
10.74 617
10.8 617
10.86 554
10.92 582
10.98 562
11.04 569
11.1 595
11.16 558
11.22 568
11.28 575
11.34 504
11.4 565
11.46 593
11.52 541
11.58 608
11.64 537
11.7 549
11.76 568
11.82 575
11.88 573
11.94 569
12 525
12.06 534
12.12 558
12.18 551
12.24 564
12.3 563
12.36 580
12.42 643
12.48 628
12.54 719
12.6 766
12.66 712
12.72 699
12.78 666
12.84 574
12.9 600
12.96 607
13.02 581
13.08 605
13.14 591
13.2 584
13.26 645
13.32 633
13.38 638
13.44 566
13.5 611
13.56 596
13.62 556
13.68 582
13.74 596
13.8 563
13.86 596
13.92 616
13.98 580
14.04 563
14.1 588
14.16 599
14.22 614
14.28 582
14.34 619
14.4 612
14.46 637
14.52 611
14.58 616
14.64 624
14.7 597
14.76 612
14.82 655
14.88 665
14.94 672
15 612
15.06 600
15.12 590
15.18 577
15.24 639
15.3 608
15.36 637
15.42 589
15.48 627
15.54 590
15.6 645
15.66 662
15.72 630
15.78 641
15.84 686
15.9 654
15.96 654
16.02 659
16.08 688
16.14 676
16.2 653
16.26 661
16.32 677
16.38 718
16.44 699
16.5 691
16.56 727
16.62 726
16.68 781
16.74 790
16.8 852
16.86 1012
16.92 1314
16.98 1364
17.04 908
17.1 787
17.16 753
17.22 771
17.28 694
17.34 750
17.4 778
17.46 809
17.52 758
17.58 778
17.64 814
17.7 766
17.76 816
17.82 791
17.88 848
17.94 768
18 832
18.06 833
18.12 860
18.18 841
18.24 855
18.3 841
18.36 846
18.42 867
18.48 910
18.54 886
18.6 845
18.66 848
18.72 879
18.78 861
18.84 925
18.9 865
18.96 934
19.02 882
19.08 886
19.14 889
19.2 880
19.26 951
19.32 902
19.38 922
19.44 983
19.5 900
19.56 962
19.62 961
19.68 961
19.74 913
19.8 1072
19.86 1119
19.92 1134
19.98 1028
20 1094