File: xrd-UiO-67/pxrddata/46-11.ASC
3 2910
3.06 2409
3.12 2106
3.18 2045
3.24 1938
3.3 1797
3.36 1792
3.42 1722
3.48 1734
3.54 1697
3.6 1522
3.66 1547
3.72 1453
3.78 1390
3.84 1376
3.9 1369
3.96 1464
4.02 1280
4.08 1282
4.14 1246
4.2 1275
4.26 1192
4.32 1183
4.38 1160
4.44 1213
4.5 1134
4.56 1175
4.62 1097
4.68 1230
4.74 1203
4.8 1251
4.86 1250
4.92 1321
4.98 1315
5.04 1380
5.1 1488
5.16 1679
5.22 1950
5.28 2285
5.34 2731
5.4 3984
5.46 4218
5.52 2118
5.58 1701
5.64 1410
5.7 1283
5.76 1183
5.82 1114
5.88 1052
5.94 988
6 944
6.06 931
6.12 883
6.18 907
6.24 874
6.3 848
6.36 828
6.42 810
6.48 856
6.54 829
6.6 837
6.66 802
6.72 782
6.78 795
6.84 782
6.9 846
6.96 818
7.02 807
7.08 801
7.14 765
7.2 809
7.26 770
7.32 763
7.38 800
7.44 768
7.5 739
7.56 799
7.62 766
7.68 774
7.74 743
7.8 773
7.86 845
7.92 801
7.98 765
8.04 803
8.1 827
8.16 729
8.22 767
8.28 781
8.34 803
8.4 758
8.46 760
8.52 706
8.58 722
8.64 783
8.7 766
8.76 810
8.82 774
8.88 791
8.94 846
9 848
9.06 891
9.12 952
9.18 1022
9.24 1194
9.3 1463
9.36 1810
9.42 1203
9.48 894
9.54 851
9.6 839
9.66 822
9.72 827
9.78 839
9.84 819
9.9 810
9.96 783
10.02 796
10.08 789
10.14 798
10.2 843
10.26 800
10.32 783
10.38 811
10.44 798
10.5 860
10.56 914
10.62 967
10.68 1027
10.74 1138
10.8 1345
10.86 1068
10.92 1046
10.98 850
11.04 880
11.1 843
11.16 797
11.22 792
11.28 823
11.34 800
11.4 810
11.46 813
11.52 878
11.58 811
11.64 837
11.7 866
11.76 834
11.82 853
11.88 900
11.94 779
12 893
12.06 853
12.12 852
12.18 855
12.24 902
12.3 906
12.36 919
12.42 899
12.48 901
12.54 887
12.6 890
12.66 933
12.72 897
12.78 886
12.84 943
12.9 982
12.96 933
13.02 941
13.08 968
13.14 957
13.2 957
13.26 973
13.32 997
13.38 961
13.44 940
13.5 939
13.56 963
13.62 972
13.68 991
13.74 1007
13.8 992
13.86 997
13.92 1000
13.98 1028
14.04 1045
14.1 996
14.16 1035
14.22 1118
14.28 1070
14.34 1056
14.4 1024
14.46 1093
14.52 1052
14.58 1047
14.64 1048
14.7 1095
14.76 1101
14.82 1057
14.88 1083
14.94 1133
15 1070
15.06 1143
15.12 1141
15.18 1170
15.24 1127
15.3 1173
15.36 1104
15.42 1134
15.48 1159
15.54 1158
15.6 1212
15.66 1194
15.72 1177
15.78 1244
15.84 1217
15.9 1221
15.96 1165
16.02 1218
16.08 1232
16.14 1270
16.2 1294
16.26 1277
16.32 1362
16.38 1324
16.44 1340
16.5 1389
16.56 1369
16.62 1376
16.68 1330
16.74 1425
16.8 1534
16.86 1505
16.92 1704
16.98 1928
17.04 2027
17.1 1666
17.16 1478
17.22 1496
17.28 1544
17.34 1479
17.4 1502
17.46 1490
17.52 1524
17.58 1556
17.64 1623
17.7 1567
17.76 1623
17.82 1625
17.88 1651
17.94 1557
18 1699
18.06 1653
18.12 1576
18.18 1673
18.24 1647
18.3 1641
18.36 1622
18.42 1640
18.48 1660
18.54 1778
18.6 1710
18.66 1800
18.72 1815
18.78 1802
18.84 1797
18.9 1817
18.96 1761
19.02 1826
19.08 1869
19.14 1882
19.2 1815
19.26 1876
19.32 1930
19.38 1876
19.44 2071
19.5 2076
19.56 1989
19.62 2035
19.68 1942
19.74 2016
19.8 1992
19.86 2024
19.92 1991
19.98 2024
20 2033