File: xrd-UiO-67/pxrddata/46-1.ASC
3 2221
3.06 1810
3.12 1564
3.18 1500
3.24 1448
3.3 1466
3.36 1372
3.42 1384
3.48 1360
3.54 1292
3.6 1284
3.66 1232
3.72 1171
3.78 1197
3.84 1207
3.9 1156
3.96 1186
4.02 1100
4.08 1084
4.14 1091
4.2 1060
4.26 1067
4.32 1033
4.38 1046
4.44 982
4.5 1036
4.56 963
4.62 960
4.68 935
4.74 926
4.8 1004
4.86 962
4.92 916
4.98 957
5.04 929
5.1 965
5.16 1047
5.22 1060
5.28 1140
5.34 1204
5.4 1420
5.46 1689
5.52 1778
5.58 1198
5.64 1166
5.7 1166
5.76 1182
5.82 1147
5.88 1157
5.94 860
6 802
6.06 791
6.12 699
6.18 667
6.24 681
6.3 697
6.36 660
6.42 641
6.48 652
6.54 621
6.6 627
6.66 602
6.72 601
6.78 648
6.84 641
6.9 644
6.96 615
7.02 637
7.08 557
7.14 587
7.2 575
7.26 624
7.32 587
7.38 567
7.44 586
7.5 554
7.56 557
7.62 548
7.68 530
7.74 571
7.8 540
7.86 536
7.92 538
7.98 570
8.04 587
8.1 561
8.16 547
8.22 544
8.28 528
8.34 570
8.4 527
8.46 570
8.52 518
8.58 519
8.64 536
8.7 503
8.76 495
8.82 588
8.88 570
8.94 534
9 512
9.06 559
9.12 610
9.18 595
9.24 637
9.3 730
9.36 857
9.42 1006
9.48 680
9.54 553
9.6 530
9.66 564
9.72 561
9.78 533
9.84 566
9.9 565
9.96 540
10.02 526
10.08 549
10.14 537
10.2 578
10.26 584
10.32 566
10.38 514
10.44 516
10.5 484
10.56 543
10.62 564
10.68 598
10.74 620
10.8 668
10.86 759
10.92 619
10.98 589
11.04 609
11.1 587
11.16 522
11.22 525
11.28 494
11.34 533
11.4 503
11.46 520
11.52 566
11.58 543
11.64 562
11.7 518
11.76 544
11.82 495
11.88 495
11.94 487
12 518
12.06 559
12.12 538
12.18 538
12.24 583
12.3 565
12.36 519
12.42 515
12.48 542
12.54 532
12.6 577
12.66 500
12.72 531
12.78 514
12.84 522
12.9 533
12.96 526
13.02 571
13.08 522
13.14 552
13.2 560
13.26 502
13.32 555
13.38 573
13.44 565
13.5 552
13.56 562
13.62 531
13.68 581
13.74 558
13.8 548
13.86 580
13.92 570
13.98 585
14.04 583
14.1 563
14.16 620
14.22 605
14.28 589
14.34 663
14.4 580
14.46 588
14.52 571
14.58 567
14.64 639
14.7 596
14.76 624
14.82 576
14.88 629
14.94 634
15 598
15.06 640
15.12 634
15.18 627
15.24 646
15.3 604
15.36 614
15.42 670
15.48 621
15.54 606
15.6 661
15.66 632
15.72 678
15.78 660
15.84 641
15.9 634
15.96 656
16.02 648
16.08 716
16.14 661
16.2 665
16.26 681
16.32 719
16.38 689
16.44 700
16.5 696
16.56 783
16.62 740
16.68 729
16.74 701
16.8 793
16.86 725
16.92 736
16.98 818
17.04 905
17.1 934
17.16 766
17.22 748
17.28 809
17.34 806
17.4 791
17.46 814
17.52 822
17.58 876
17.64 834
17.7 831
17.76 817
17.82 807
17.88 870
17.94 847
18 835
18.06 845
18.12 849
18.18 849
18.24 847
18.3 915
18.36 941
18.42 837
18.48 867
18.54 922
18.6 896
18.66 921
18.72 968
18.78 963
18.84 965
18.9 954
18.96 953
19.02 1014
19.08 989
19.14 981
19.2 1076
19.26 1036
19.32 982
19.38 1021
19.44 1098
19.5 1145
19.56 1197
19.62 1131
19.68 1145
19.74 1083
19.8 1082
19.86 1039
19.92 1110
19.98 1083
20 1060