File: xrd-UiO-67/pxrddata/46-4.ASC
3 2949
3.06 2553
3.12 2231
3.18 2108
3.24 2062
3.3 1939
3.36 1929
3.42 1947
3.48 1882
3.54 1753
3.6 1716
3.66 1573
3.72 1505
3.78 1468
3.84 1447
3.9 1369
3.96 1319
4.02 1267
4.08 1246
4.14 1140
4.2 1188
4.26 1199
4.32 1189
4.38 1067
4.44 1152
4.5 1032
4.56 1028
4.62 1028
4.68 994
4.74 975
4.8 968
4.86 958
4.92 945
4.98 949
5.04 859
5.1 891
5.16 909
5.22 879
5.28 942
5.34 911
5.4 973
5.46 991
5.52 982
5.58 872
5.64 870
5.7 823
5.76 814
5.82 794
5.88 805
5.94 765
6 710
6.06 764
6.12 760
6.18 702
6.24 721
6.3 699
6.36 725
6.42 752
6.48 707
6.54 685
6.6 727
6.66 733
6.72 743
6.78 708
6.84 684
6.9 717
6.96 688
7.02 731
7.08 680
7.14 677
7.2 700
7.26 696
7.32 655
7.38 667
7.44 664
7.5 692
7.56 692
7.62 639
7.68 590
7.74 647
7.8 650
7.86 588
7.92 650
7.98 672
8.04 608
8.1 611
8.16 639
8.22 608
8.28 645
8.34 668
8.4 564
8.46 664
8.52 649
8.58 576
8.64 606
8.7 612
8.76 579
8.82 643
8.88 666
8.94 629
9 636
9.06 590
9.12 605
9.18 616
9.24 650
9.3 642
9.36 688
9.42 650
9.48 653
9.54 675
9.6 596
9.66 640
9.72 624
9.78 626
9.84 611
9.9 596
9.96 592
10.02 551
10.08 558
10.14 609
10.2 626
10.26 584
10.32 591
10.38 605
10.44 594
10.5 569
10.56 576
10.62 618
10.68 589
10.74 618
10.8 627
10.86 611
10.92 614
10.98 635
11.04 637
11.1 604
11.16 602
11.22 544
11.28 622
11.34 593
11.4 575
11.46 570
11.52 563
11.58 541
11.64 551
11.7 576
11.76 574
11.82 616
11.88 575
11.94 589
12 583
12.06 599
12.12 644
12.18 600
12.24 581
12.3 609
12.36 598
12.42 601
12.48 595
12.54 551
12.6 595
12.66 572
12.72 584
12.78 628
12.84 644
12.9 646
12.96 643
13.02 572
13.08 666
13.14 608
13.2 628
13.26 594
13.32 612
13.38 649
13.44 625
13.5 646
13.56 657
13.62 609
13.68 693
13.74 660
13.8 631
13.86 666
13.92 649
13.98 641
14.04 661
14.1 737
14.16 708
14.22 707
14.28 664
14.34 730
14.4 738
14.46 705
14.52 753
14.58 773
14.64 703
14.7 707
14.76 765
14.82 710
14.88 774
14.94 769
15 698
15.06 731
15.12 723
15.18 751
15.24 771
15.3 759
15.36 772
15.42 744
15.48 822
15.54 795
15.6 831
15.66 805
15.72 792
15.78 782
15.84 836
15.9 767
15.96 798
16.02 839
16.08 831
16.14 838
16.2 830
16.26 899
16.32 859
16.38 904
16.44 860
16.5 945
16.56 920
16.62 856
16.68 924
16.74 932
16.8 988
16.86 1016
16.92 1028
16.98 1266
17.04 1389
17.1 1164
17.16 1043
17.22 1013
17.28 1011
17.34 1033
17.4 991
17.46 1004
17.52 1014
17.58 1024
17.64 1060
17.7 1061
17.76 1070
17.82 1083
17.88 1057
17.94 1066
18 1091
18.06 1099
18.12 1148
18.18 1209
18.24 1090
18.3 1144
18.36 1156
18.42 1176
18.48 1154
18.54 1208
18.6 1188
18.66 1219
18.72 1201
18.78 1156
18.84 1255
18.9 1227
18.96 1274
19.02 1237
19.08 1275
19.14 1263
19.2 1312
19.26 1360
19.32 1289
19.38 1361
19.44 1369
19.5 1314
19.56 1319
19.62 1375
19.68 1451
19.74 1371
19.8 1346
19.86 1445
19.92 1434
19.98 1414
20 1425