File: xrd-UiO-67/pxrddata/47-15.ASC
3 2174
3.06 1733
3.12 1517
3.18 1447
3.24 1378
3.3 1373
3.36 1334
3.42 1320
3.48 1313
3.54 1258
3.6 1287
3.66 1239
3.72 1186
3.78 1221
3.84 1259
3.9 1243
3.96 1296
4.02 1407
4.08 1404
4.14 1419
4.2 1219
4.26 1129
4.32 1003
4.38 985
4.44 946
4.5 977
4.56 900
4.62 970
4.68 941
4.74 894
4.8 993
4.86 1016
4.92 1074
4.98 1110
5.04 1189
5.1 1338
5.16 1435
5.22 1683
5.28 1994
5.34 2357
5.4 3167
5.46 3359
5.52 2694
5.58 2683
5.64 2975
5.7 3666
5.76 4818
5.82 4581
5.88 2411
5.94 1395
6 1069
6.06 941
6.12 880
6.18 941
6.24 929
6.3 857
6.36 810
6.42 801
6.48 782
6.54 811
6.6 907
6.66 903
6.72 1028
6.78 1085
6.84 905
6.9 808
6.96 743
7.02 711
7.08 695
7.14 671
7.2 665
7.26 686
7.32 643
7.38 658
7.44 666
7.5 628
7.56 681
7.62 694
7.68 643
7.74 650
7.8 606
7.86 684
7.92 711
7.98 648
8.04 737
8.1 724
8.16 727
8.22 734
8.28 672
8.34 715
8.4 644
8.46 714
8.52 652
8.58 721
8.64 652
8.7 669
8.76 732
8.82 731
8.88 724
8.94 753
9 783
9.06 822
9.12 974
9.18 1026
9.24 1294
9.3 1736
9.36 2230
9.42 1324
9.48 860
9.54 819
9.6 709
9.66 765
9.72 705
9.78 772
9.84 749
9.9 788
9.96 766
10.02 829
10.08 893
10.14 994
10.2 1123
10.26 951
10.32 761
10.38 798
10.44 746
10.5 718
10.56 752
10.62 865
10.68 904
10.74 1021
10.8 1291
10.86 1237
10.92 1360
10.98 1681
11.04 1126
11.1 825
11.16 780
11.22 728
11.28 763
11.34 813
11.4 859
11.46 983
11.52 1106
11.58 935
11.64 838
11.7 811
11.76 722
11.82 777
11.88 763
11.94 710
12 769
12.06 790
12.12 810
12.18 882
12.24 926
12.3 878
12.36 816
12.42 796
12.48 710
12.54 734
12.6 802
12.66 711
12.72 792
12.78 737
12.84 758
12.9 717
12.96 797
13.02 781
13.08 786
13.14 837
13.2 783
13.26 815
13.32 860
13.38 896
13.44 857
13.5 827
13.56 876
13.62 848
13.68 837
13.74 805
13.8 817
13.86 833
13.92 825
13.98 834
14.04 842
14.1 821
14.16 878
14.22 897
14.28 927
14.34 869
14.4 971
14.46 891
14.52 884
14.58 884
14.64 889
14.7 939
14.76 968
14.82 1025
14.88 999
14.94 957
15 960
15.06 936
15.12 1000
15.18 1006
15.24 1003
15.3 976
15.36 994
15.42 975
15.48 1018
15.54 934
15.6 996
15.66 944
15.72 1050
15.78 919
15.84 1010
15.9 1011
15.96 984
16.02 1088
16.08 1000
16.14 1056
16.2 1103
16.26 1100
16.32 1184
16.38 1170
16.44 1134
16.5 1068
16.56 1119
16.62 1136
16.68 1129
16.74 1115
16.8 1142
16.86 1249
16.92 1463
16.98 1978
17.04 2252
17.1 1414
17.16 1192
17.22 1226
17.28 1253
17.34 1252
17.4 1234
17.46 1255
17.52 1252
17.58 1267
17.64 1279
17.7 1293
17.76 1311
17.82 1301
17.88 1390
17.94 1400
18 1376
18.06 1364
18.12 1331
18.18 1327
18.24 1338
18.3 1359
18.36 1371
18.42 1376
18.48 1447
18.54 1363
18.6 1438
18.66 1502
18.72 1547
18.78 1561
18.84 1556
18.9 1545
18.96 1470
19.02 1589
19.08 1663
19.14 1754
19.2 1738
19.26 1689
19.32 1555
19.38 1676
19.44 1798
19.5 1854
19.56 1944
19.62 1837
19.68 1693
19.74 1568
19.8 1603
19.86 1706
19.92 1644
19.98 1663
20 1649