File: xrd-UiO-67/pxrddata/48-1.ASC
3 2213
3.06 1819
3.12 1553
3.18 1556
3.24 1449
3.3 1395
3.36 1360
3.42 1342
3.48 1345
3.54 1296
3.6 1257
3.66 1237
3.72 1269
3.78 1201
3.84 1147
3.9 1171
3.96 1166
4.02 1169
4.08 1222
4.14 1210
4.2 1166
4.26 1082
4.32 1054
4.38 1008
4.44 1016
4.5 982
4.56 989
4.62 941
4.68 991
4.74 964
4.8 995
4.86 1033
4.92 1108
4.98 1124
5.04 1164
5.1 1314
5.16 1382
5.22 1625
5.28 1817
5.34 2302
5.4 3167
5.46 2810
5.52 2234
5.58 2041
5.64 2223
5.7 2395
5.76 2557
5.82 1875
5.88 1319
5.94 1042
6 990
6.06 865
6.12 823
6.18 854
6.24 778
6.3 785
6.36 768
6.42 792
6.48 811
6.54 789
6.6 784
6.66 833
6.72 825
6.78 868
6.84 824
6.9 751
6.96 768
7.02 697
7.08 722
7.14 688
7.2 703
7.26 707
7.32 665
7.38 699
7.44 682
7.5 692
7.56 704
7.62 695
7.68 668
7.74 704
7.8 654
7.86 719
7.92 762
7.98 733
8.04 703
8.1 740
8.16 695
8.22 656
8.28 671
8.34 709
8.4 686
8.46 709
8.52 680
8.58 705
8.64 665
8.7 666
8.76 674
8.82 731
8.88 688
8.94 734
9 758
9.06 813
9.12 830
9.18 883
9.24 1030
9.3 1410
9.36 1534
9.42 905
9.48 794
9.54 762
9.6 705
9.66 765
9.72 706
9.78 681
9.84 714
9.9 707
9.96 757
10.02 725
10.08 811
10.14 807
10.2 828
10.26 789
10.32 735
10.38 700
10.44 771
10.5 737
10.56 784
10.62 824
10.68 863
10.74 979
10.8 1030
10.86 964
10.92 1068
10.98 961
11.04 876
11.1 809
11.16 751
11.22 691
11.28 716
11.34 777
11.4 751
11.46 741
11.52 772
11.58 736
11.64 803
11.7 795
11.76 703
11.82 760
11.88 771
11.94 763
12 780
12.06 800
12.12 788
12.18 800
12.24 811
12.3 809
12.36 784
12.42 820
12.48 757
12.54 710
12.6 789
12.66 814
12.72 770
12.78 820
12.84 801
12.9 806
12.96 780
13.02 792
13.08 866
13.14 786
13.2 796
13.26 909
13.32 784
13.38 775
13.44 880
13.5 858
13.56 809
13.62 805
13.68 803
13.74 845
13.8 839
13.86 869
13.92 804
13.98 904
14.04 831
14.1 883
14.16 897
14.22 900
14.28 913
14.34 973
14.4 867
14.46 915
14.52 946
14.58 963
14.64 930
14.7 945
14.76 998
14.82 944
14.88 952
14.94 978
15 942
15.06 977
15.12 971
15.18 969
15.24 1025
15.3 987
15.36 978
15.42 986
15.48 1002
15.54 1015
15.6 1019
15.66 1020
15.72 1085
15.78 1045
15.84 1019
15.9 1053
15.96 1065
16.02 1138
16.08 1072
16.14 1102
16.2 1156
16.26 1117
16.32 1168
16.38 1186
16.44 1170
16.5 1198
16.56 1208
16.62 1192
16.68 1201
16.74 1229
16.8 1291
16.86 1348
16.92 1588
16.98 1761
17.04 1783
17.1 1446
17.16 1390
17.22 1268
17.28 1380
17.34 1348
17.4 1283
17.46 1327
17.52 1322
17.58 1266
17.64 1321
17.7 1347
17.76 1363
17.82 1339
17.88 1420
17.94 1408
18 1444
18.06 1380
18.12 1439
18.18 1418
18.24 1390
18.3 1468
18.36 1435
18.42 1463
18.48 1465
18.54 1523
18.6 1578
18.66 1531
18.72 1505
18.78 1555
18.84 1530
18.9 1585
18.96 1554
19.02 1602
19.08 1724
19.14 1588
19.2 1618
19.26 1583
19.32 1649
19.38 1707
19.44 1707
19.5 1800
19.56 1822
19.62 1711
19.68 1677
19.74 1759
19.8 1655
19.86 1747
19.92 1735
19.98 1737
20 1701