File: xrd-UiO-67/pxrddata/48-12.ASC
3 2237
3.06 1852
3.12 1562
3.18 1481
3.24 1529
3.3 1448
3.36 1361
3.42 1324
3.48 1335
3.54 1263
3.6 1249
3.66 1198
3.72 1208
3.78 1126
3.84 1174
3.9 1060
3.96 1060
4.02 1105
4.08 1133
4.14 1120
4.2 1018
4.26 1070
4.32 1078
4.38 1075
4.44 1026
4.5 1044
4.56 1057
4.62 1023
4.68 1055
4.74 1122
4.8 1126
4.86 1144
4.92 1226
4.98 1326
5.04 1393
5.1 1443
5.16 1684
5.22 1872
5.28 2204
5.34 2846
5.4 4073
5.46 2675
5.52 2141
5.58 1948
5.64 1837
5.7 1837
5.76 1564
5.82 1307
5.88 1060
5.94 940
6 918
6.06 903
6.12 836
6.18 771
6.24 715
6.3 770
6.36 799
6.42 793
6.48 721
6.54 814
6.6 818
6.66 793
6.72 784
6.78 744
6.84 760
6.9 743
6.96 633
7.02 675
7.08 666
7.14 651
7.2 714
7.26 637
7.32 613
7.38 665
7.44 654
7.5 605
7.56 657
7.62 664
7.68 700
7.74 686
7.8 712
7.86 689
7.92 646
7.98 698
8.04 687
8.1 700
8.16 631
8.22 641
8.28 651
8.34 662
8.4 628
8.46 680
8.52 682
8.58 658
8.64 649
8.7 681
8.76 639
8.82 661
8.88 687
8.94 708
9 762
9.06 786
9.12 919
9.18 894
9.24 1203
9.3 1602
9.36 1276
9.42 755
9.48 734
9.54 711
9.6 707
9.66 697
9.72 724
9.78 705
9.84 675
9.9 746
9.96 689
10.02 616
10.08 700
10.14 711
10.2 737
10.26 679
10.32 635
10.38 683
10.44 704
10.5 709
10.56 754
10.62 787
10.68 896
10.74 1116
10.8 1064
10.86 902
10.92 916
10.98 834
11.04 705
11.1 681
11.16 675
11.22 692
11.28 648
11.34 674
11.4 678
11.46 687
11.52 682
11.58 689
11.64 651
11.7 612
11.76 650
11.82 675
11.88 655
11.94 681
12 681
12.06 731
12.12 665
12.18 754
12.24 750
12.3 679
12.36 655
12.42 692
12.48 660
12.54 666
12.6 631
12.66 640
12.72 673
12.78 686
12.84 642
12.9 644
12.96 677
13.02 639
13.08 659
13.14 658
13.2 692
13.26 681
13.32 666
13.38 693
13.44 690
13.5 637
13.56 675
13.62 697
13.68 766
13.74 718
13.8 685
13.86 678
13.92 666
13.98 708
14.04 717
14.1 679
14.16 710
14.22 754
14.28 774
14.34 756
14.4 745
14.46 697
14.52 690
14.58 781
14.64 694
14.7 765
14.76 680
14.82 782
14.88 736
14.94 764
15 718
15.06 798
15.12 759
15.18 700
15.24 773
15.3 749
15.36 755
15.42 744
15.48 755
15.54 778
15.6 815
15.66 733
15.72 758
15.78 798
15.84 826
15.9 812
15.96 785
16.02 785
16.08 837
16.14 826
16.2 843
16.26 877
16.32 833
16.38 893
16.44 881
16.5 847
16.56 850
16.62 861
16.68 910
16.74 870
16.8 845
16.86 899
16.92 911
16.98 921
17.04 907
17.1 891
17.16 917
17.22 988
17.28 931
17.34 941
17.4 947
17.46 1002
17.52 971
17.58 963
17.64 992
17.7 963
17.76 998
17.82 969
17.88 993
17.94 1012
18 1038
18.06 1036
18.12 1099
18.18 1035
18.24 1046
18.3 1097
18.36 1049
18.42 1031
18.48 1087
18.54 1103
18.6 1117
18.66 1076
18.72 1111
18.78 1155
18.84 1163
18.9 1173
18.96 1179
19.02 1163
19.08 1260
19.14 1162
19.2 1157
19.26 1148
19.32 1254
19.38 1347
19.44 1363
19.5 1395
19.56 1310
19.62 1267
19.68 1240
19.74 1209
19.8 1201
19.86 1248
19.92 1233
19.98 1243
20 1224