File: xrd-UiO-67/pxrddata/5-11.ASC
3 2085
3.1 1601
3.2 1470
3.3 1404
3.4 1343
3.5 1254
3.6 1251
3.7 1196
3.8 1136
3.9 1090
4 1027
4.1 1112
4.2 963
4.3 914
4.4 912
4.5 910
4.6 901
4.7 883
4.8 884
4.9 912
5 934
5.1 971
5.2 1065
5.3 1114
5.4 1260
5.5 1582
5.6 2082
5.7 2963
5.8 5907
5.9 1100
6 930
6.1 994
6.2 1049
6.3 1137
6.4 1201
6.5 1605
6.6 2415
6.7 3239
6.8 921
6.9 919
7 885
7.1 933
7.2 974
7.3 1040
7.4 1098
7.5 1125
7.6 884
7.7 839
7.8 865
7.9 858
8 817
8.1 814
8.2 829
8.3 833
8.4 891
8.5 911
8.6 974
8.7 914
8.8 833
8.9 871
9 1005
9.1 992
9.2 1243
9.3 1642
9.4 3117
9.5 949
9.6 844
9.7 844
9.8 847
9.9 829
10 882
10.1 841
10.2 833
10.3 874
10.4 905
10.5 905
10.6 892
10.7 991
10.8 1190
10.9 1550
11 3037
11.1 1145
11.2 1030
11.3 1077
11.4 1254
11.5 2048
11.6 1024
11.7 930
11.8 919
11.9 930
12 966
12.1 967
12.2 1049
12.3 912
12.4 961
12.5 977
12.6 955
12.7 959
12.8 978
12.9 966
13 1034
13.1 1005
13.2 1174
13.3 1234
13.4 1029
13.5 1028
13.6 998
13.7 1118
13.8 973
13.9 1102
14 1065
14.1 1147
14.2 1133
14.3 1152
14.4 1330
14.5 1331
14.6 1148
14.7 1178
14.8 1207
14.9 1194
15 1126
15.1 1203
15.2 1173
15.3 1199
15.4 1257
15.5 1231
15.6 1281
15.7 1297
15.8 1346
15.9 1272
16 1313
16.1 1398
16.2 1338
16.3 1361
16.4 1329
16.5 1408
16.6 1507
16.7 1490
16.8 1499
16.9 1487
17 1626
17.1 1648
17.2 1784
17.3 1697
17.4 1607
17.5 1696
17.6 1657
17.7 1668
17.8 1790
17.9 1653
18 1765
18.1 1769
18.2 1779
18.3 1884
18.4 1880
18.5 1911
18.6 1828
18.7 1823
18.8 1890
18.9 2047
19 1956
19.1 2003
19.2 2103
19.3 2038
19.4 2179
19.5 2237
19.6 2779
19.7 2437
19.8 2504
19.9 3419
20 2288
20.1 2210
20.2 2181
20.3 2133
20.4 2219
20.5 2201
20.6 2120
20.7 2182
20.8 2179
20.9 2191
21 2142
21.1 2207
21.2 2226
21.3 2185
21.4 2213
21.5 2184
21.6 2138
21.7 2268
21.8 2461
21.9 2118
22 2166
22.1 2157
22.2 2116
22.3 2096
22.4 2083
22.5 2062
22.6 1986
22.7 1943
22.8 1987
22.9 1987
23 2057
23.1 1983
23.2 1848
23.3 1893
23.4 1928
23.5 1963
23.6 2027
23.7 2758
23.8 2207
23.9 1856
24 1931
24.1 1757
24.2 1709
24.3 1607
24.4 1712
24.5 1694
24.6 1674
24.7 1674
24.8 1847
24.9 2132
25 1668
25.1 1553
25.2 1561
25.3 1628
25.4 1681
25.5 2333
25.6 2113
25.7 1499
25.8 1656
25.9 1521
26 1516
26.1 1452
26.2 1393
26.3 1418
26.4 1403
26.5 1497
26.6 2036
26.7 1545
26.8 1367
26.9 1307
27 1367
27.1 1275
27.2 1377
27.3 1394
27.4 1807
27.5 1741
27.6 1374
27.7 1271
27.8 1249
27.9 1223
28 1205
28.1 1267
28.2 1342
28.3 1366
28.4 1264
28.5 1245
28.6 1230
28.7 1239
28.8 1598
28.9 1571
29 1576
29.1 1489
29.2 1197
29.3 1177
29.4 1159
29.5 1131
29.6 1162
29.7 1112
29.8 1112
29.9 1148
30 1140