File: xrd-UiO-67/pxrddata/5-12.ASC
3 1849
3.1 1454
3.2 1309
3.3 1243
3.4 1208
3.5 1154
3.6 1093
3.7 1103
3.8 997
3.9 925
4 961
4.1 867
4.2 837
4.3 822
4.4 812
4.5 749
4.6 731
4.7 765
4.8 665
4.9 744
5 722
5.1 748
5.2 760
5.3 722
5.4 816
5.5 855
5.6 908
5.7 1147
5.8 1617
5.9 800
6 774
6.1 772
6.2 683
6.3 772
6.4 748
6.5 847
6.6 980
6.7 1355
6.8 742
6.9 767
7 746
7.1 788
7.2 818
7.3 944
7.4 1098
7.5 1441
7.6 770
7.7 714
7.8 693
7.9 685
8 736
8.1 710
8.2 759
8.3 785
8.4 809
8.5 891
8.6 1090
8.7 829
8.8 735
8.9 709
9 713
9.1 774
9.2 776
9.3 1021
9.4 1377
9.5 848
9.6 702
9.7 732
9.8 725
9.9 718
10 747
10.1 761
10.2 746
10.3 754
10.4 738
10.5 777
10.6 754
10.7 862
10.8 854
10.9 963
11 1435
11.1 1006
11.2 810
11.3 820
11.4 920
11.5 1168
11.6 900
11.7 807
11.8 835
11.9 839
12 834
12.1 983
12.2 954
12.3 827
12.4 837
12.5 807
12.6 878
12.7 919
12.8 898
12.9 856
13 907
13.1 941
13.2 1044
13.3 1064
13.4 985
13.5 969
13.6 975
13.7 960
13.8 1003
13.9 1013
14 1021
14.1 1064
14.2 1128
14.3 1108
14.4 1126
14.5 1228
14.6 1109
14.7 1159
14.8 1214
14.9 1261
15 1154
15.1 1181
15.2 1206
15.3 1225
15.4 1213
15.5 1247
15.6 1305
15.7 1315
15.8 1382
15.9 1322
16 1378
16.1 1394
16.2 1400
16.3 1471
16.4 1526
16.5 1458
16.6 1551
16.7 1539
16.8 1688
16.9 1533
17 1602
17.1 1750
17.2 1886
17.3 1781
17.4 1765
17.5 1716
17.6 1703
17.7 1776
17.8 1739
17.9 1857
18 1872
18.1 1913
18.2 1880
18.3 2010
18.4 1961
18.5 2012
18.6 2062
18.7 2206
18.8 2104
18.9 2093
19 2194
19.1 2111
19.2 2210
19.3 2175
19.4 2300
19.5 2339
19.6 2605
19.7 2597
19.8 2472
19.9 2975
20 2531
20.1 2273
20.2 2357
20.3 2373
20.4 2312
20.5 2247
20.6 2265
20.7 2306
20.8 2404
20.9 2435
21 2366
21.1 2434
21.2 2448
21.3 2372
21.4 2366
21.5 2320
21.6 2377
21.7 2395
21.8 2566
21.9 2394
22 2339
22.1 2286
22.2 2338
22.3 2513
22.4 2369
22.5 2227
22.6 2173
22.7 2235
22.8 2216
22.9 2220
23 2258
23.1 2113
23.2 2159
23.3 2038
23.4 2165
23.5 2068
23.6 2126
23.7 2554
23.8 2544
23.9 2021
24 2161
24.1 1988
24.2 2020
24.3 1987
24.4 2050
24.5 1844
24.6 1897
24.7 1929
24.8 2026
24.9 2393
25 1948
25.1 1864
25.2 1830
25.3 1822
25.4 1981
25.5 2336
25.6 2531
25.7 1985
25.8 2508
25.9 2155
26 1781
26.1 1736
26.2 1715
26.3 1686
26.4 1663
26.5 1735
26.6 2051
26.7 1928
26.8 1622
26.9 1635
27 1589
27.1 1641
27.2 1582
27.3 1593
27.4 1773
27.5 2026
27.6 1706
27.7 1487
27.8 1568
27.9 1486
28 1501
28.1 1542
28.2 1712
28.3 1957
28.4 1518
28.5 1466
28.6 1480
28.7 1478
28.8 1616
28.9 1860
29 1731
29.1 1796
29.2 1421
29.3 1330
29.4 1373
29.5 1362
29.6 1432
29.7 1352
29.8 1438
29.9 1674
30 1424