File: xrd-UiO-67/pxrddata/5-13.ASC
3 2041
3.1 1581
3.2 1451
3.3 1378
3.4 1310
3.5 1254
3.6 1267
3.7 1176
3.8 1072
3.9 1070
4 1043
4.1 987
4.2 932
4.3 894
4.4 911
4.5 894
4.6 825
4.7 877
4.8 853
4.9 823
5 894
5.1 986
5.2 1021
5.3 1160
5.4 1386
5.5 1750
5.6 2278
5.7 3351
5.8 7309
5.9 1241
6 979
6.1 960
6.2 984
6.3 1094
6.4 1271
6.5 1578
6.6 2463
6.7 4259
6.8 914
6.9 780
7 763
7.1 868
7.2 888
7.3 1040
7.4 1385
7.5 1766
7.6 791
7.7 706
7.8 723
7.9 752
8 747
8.1 750
8.2 806
8.3 830
8.4 871
8.5 999
8.6 1222
8.7 878
8.8 806
8.9 812
9 861
9.1 1022
9.2 1216
9.3 1812
9.4 3318
9.5 1024
9.6 809
9.7 788
9.8 775
9.9 781
10 730
10.1 742
10.2 723
10.3 766
10.4 831
10.5 794
10.6 922
10.7 972
10.8 1239
10.9 1674
11 3190
11.1 1239
11.2 964
11.3 1009
11.4 1209
11.5 2039
11.6 938
11.7 806
11.8 767
11.9 844
12 889
12.1 980
12.2 842
12.3 804
12.4 821
12.5 814
12.6 825
12.7 848
12.8 866
12.9 836
13 857
13.1 961
13.2 1022
13.3 1281
13.4 836
13.5 887
13.6 867
13.7 892
13.8 907
13.9 889
14 889
14.1 946
14.2 991
14.3 1017
14.4 1118
14.5 1226
14.6 943
14.7 974
14.8 1028
14.9 994
15 851
15.1 966
15.2 932
15.3 974
15.4 982
15.5 1020
15.6 995
15.7 1016
15.8 1036
15.9 999
16 1077
16.1 1053
16.2 1077
16.3 1056
16.4 1057
16.5 1096
16.6 1106
16.7 1199
16.8 1206
16.9 1193
17 1311
17.1 1318
17.2 1566
17.3 1486
17.4 1178
17.5 1213
17.6 1280
17.7 1288
17.8 1247
17.9 1352
18 1362
18.1 1323
18.2 1315
18.3 1445
18.4 1402
18.5 1434
18.6 1457
18.7 1475
18.8 1477
18.9 1481
19 1527
19.1 1519
19.2 1569
19.3 1543
19.4 1606
19.5 1842
19.6 2296
19.7 2213
19.8 1934
19.9 2961
20 2091
20.1 1693
20.2 1695
20.3 1675
20.4 1705
20.5 1666
20.6 1680
20.7 1691
20.8 1728
20.9 1765
21 1763
21.1 1821
21.2 1693
21.3 1752
21.4 1674
21.5 1714
21.6 1680
21.7 1959
21.8 2112
21.9 1759
22 1728
22.1 1671
22.2 1670
22.3 1702
22.4 1683
22.5 1625
22.6 1613
22.7 1633
22.8 1634
22.9 1658
23 1767
23.1 1645
23.2 1580
23.3 1546
23.4 1573
23.5 1538
23.6 1719
23.7 2425
23.8 2140
23.9 1632
24 1693
24.1 1423
24.2 1390
24.3 1531
24.4 1389
24.5 1374
24.6 1443
24.7 1475
24.8 1682
24.9 2144
25 1417
25.1 1356
25.2 1358
25.3 1316
25.4 1561
25.5 2038
25.6 2245
25.7 1436
25.8 1730
25.9 1396
26 1283
26.1 1219
26.2 1213
26.3 1269
26.4 1255
26.5 1249
26.6 1829
26.7 1560
26.8 1243
26.9 1196
27 1135
27.1 1150
27.2 1080
27.3 1243
27.4 1613
27.5 1866
27.6 1158
27.7 1095
27.8 1074
27.9 1045
28 1065
28.1 1121
28.2 1251
28.3 1409
28.4 1125
28.5 1060
28.6 1055
28.7 1074
28.8 1355
28.9 1618
29 1437
29.1 1534
29.2 1081
29.3 950
29.4 997
29.5 960
29.6 973
29.7 976
29.8 1029
29.9 1083
30 959