File: xrd-UiO-67/pxrddata/5-14.ASC
3 1995
3.1 1478
3.2 1446
3.3 1445
3.4 1353
3.5 1310
3.6 1208
3.7 1196
3.8 1119
3.9 1052
4 1070
4.1 962
4.2 965
4.3 948
4.4 949
4.5 929
4.6 861
4.7 886
4.8 826
4.9 836
5 904
5.1 875
5.2 888
5.3 864
5.4 871
5.5 1032
5.6 1079
5.7 1292
5.8 2290
5.9 921
6 902
6.1 896
6.2 845
6.3 884
6.4 988
6.5 1019
6.6 1281
6.7 1824
6.8 904
6.9 831
7 888
7.1 867
7.2 881
7.3 856
7.4 944
7.5 968
7.6 893
7.7 893
7.8 869
7.9 878
8 904
8.1 886
8.2 906
8.3 894
8.4 894
8.5 927
8.6 971
8.7 902
8.8 967
8.9 923
9 1005
9.1 1009
9.2 1074
9.3 1272
9.4 1971
9.5 971
9.6 948
9.7 900
9.8 936
9.9 931
10 942
10.1 962
10.2 991
10.3 954
10.4 973
10.5 976
10.6 1051
10.7 1080
10.8 1199
10.9 1291
11 2196
11.1 1165
11.2 1068
11.3 1165
11.4 1307
11.5 1833
11.6 1150
11.7 1068
11.8 1044
11.9 1122
12 1092
12.1 1131
12.2 1114
12.3 1146
12.4 1145
12.5 1165
12.6 1167
12.7 1159
12.8 1191
12.9 1214
13 1266
13.1 1271
13.2 1300
13.3 1446
13.4 1274
13.5 1180
13.6 1253
13.7 1296
13.8 1261
13.9 1306
14 1317
14.1 1374
14.2 1420
14.3 1379
14.4 1531
14.5 1450
14.6 1401
14.7 1475
14.8 1518
14.9 1461
15 1534
15.1 1497
15.2 1561
15.3 1502
15.4 1516
15.5 1551
15.6 1636
15.7 1724
15.8 1697
15.9 1709
16 1734
16.1 1736
16.2 1717
16.3 1796
16.4 1877
16.5 1792
16.6 1817
16.7 1893
16.8 1975
16.9 1958
17 2054
17.1 2173
17.2 2289
17.3 2204
17.4 1982
17.5 2185
17.6 2194
17.7 2181
17.8 2220
17.9 2221
18 2275
18.1 2325
18.2 2372
18.3 2391
18.4 2439
18.5 2420
18.6 2433
18.7 2504
18.8 2567
18.9 2596
19 2663
19.1 2641
19.2 2752
19.3 2739
19.4 2784
19.5 2940
19.6 3367
19.7 3295
19.8 3077
19.9 4053
20 3078
20.1 3019
20.2 2915
20.3 2908
20.4 2861
20.5 2877
20.6 2962
20.7 2842
20.8 2960
20.9 2908
21 3031
21.1 3013
21.2 2951
21.3 2997
21.4 2948
21.5 3029
21.6 2952
21.7 3125
21.8 3227
21.9 2794
22 2826
22.1 2754
22.2 2822
22.3 2751
22.4 2796
22.5 2694
22.6 2743
22.7 2688
22.8 2662
22.9 2700
23 2841
23.1 2640
23.2 2591
23.3 2547
23.4 2504
23.5 2589
23.6 2675
23.7 3458
23.8 2995
23.9 2516
24 2541
24.1 2370
24.2 2398
24.3 2329
24.4 2272
24.5 2239
24.6 2302
24.7 2276
24.8 2552
24.9 2941
25 2281
25.1 2260
25.2 2200
25.3 2237
25.4 2319
25.5 2785
25.6 2818
25.7 2063
25.8 2144
25.9 2052
26 1984
26.1 2006
26.2 1938
26.3 1912
26.4 1957
26.5 2063
26.6 2580
26.7 2154
26.8 1950
26.9 1908
27 1881
27.1 1771
27.2 1811
27.3 1865
27.4 2220
27.5 2466
27.6 1755
27.7 1752
27.8 1757
27.9 1703
28 1709
28.1 1764
28.2 1807
28.3 1957
28.4 1692
28.5 1659
28.6 1643
28.7 1703
28.8 1988
28.9 2113
29 1986
29.1 1999
29.2 1640
29.3 1533
29.4 1503
29.5 1487
29.6 1465
29.7 1471
29.8 1460
29.9 1423
30 1504