File: xrd-UiO-67/pxrddata/5-15.ASC
3 2157
3.1 1733
3.2 1542
3.3 1519
3.4 1542
3.5 1453
3.6 1417
3.7 1369
3.8 1287
3.9 1226
4 1227
4.1 1181
4.2 1118
4.3 1075
4.4 1110
4.5 1031
4.6 1040
4.7 1002
4.8 1052
4.9 1011
5 1019
5.1 973
5.2 988
5.3 964
5.4 970
5.5 987
5.6 977
5.7 1047
5.8 1031
5.9 930
6 990
6.1 992
6.2 1009
6.3 985
6.4 986
6.5 1004
6.6 954
6.7 1026
6.8 1007
6.9 978
7 941
7.1 978
7.2 973
7.3 1016
7.4 1042
7.5 980
7.6 1016
7.7 990
7.8 987
7.9 972
8 945
8.1 993
8.2 993
8.3 1005
8.4 1018
8.5 963
8.6 981
8.7 969
8.8 1001
8.9 931
9 983
9.1 1010
9.2 954
9.3 976
9.4 994
9.5 1025
9.6 933
9.7 992
9.8 984
9.9 960
10 926
10.1 1007
10.2 973
10.3 1016
10.4 950
10.5 956
10.6 986
10.7 1025
10.8 914
10.9 957
11 946
11.1 1007
11.2 995
11.3 1008
11.4 1016
11.5 1002
11.6 1061
11.7 941
11.8 971
11.9 1007
12 1077
12.1 1029
12.2 1047
12.3 1004
12.4 1030
12.5 1051
12.6 1034
12.7 1088
12.8 1017
12.9 1055
13 1094
13.1 1071
13.2 1146
13.3 1206
13.4 1113
13.5 1090
13.6 1129
13.7 1134
13.8 1133
13.9 1110
14 1129
14.1 1066
14.2 1111
14.3 1172
14.4 1177
14.5 1127
14.6 1135
14.7 1125
14.8 1224
14.9 1184
15 1242
15.1 1289
15.2 1274
15.3 1299
15.4 1287
15.5 1330
15.6 1345
15.7 1292
15.8 1330
15.9 1343
16 1370
16.1 1372
16.2 1467
16.3 1511
16.4 1509
16.5 1508
16.6 1599
16.7 1713
16.8 2185
16.9 3577
17 7559
17.1 2757
17.2 1769
17.3 1722
17.4 1778
17.5 1745
17.6 1799
17.7 1803
17.8 1799
17.9 1843
18 1834
18.1 1921
18.2 1902
18.3 1975
18.4 2002
18.5 1888
18.6 2024
18.7 2001
18.8 2106
18.9 2066
19 2108
19.1 2141
19.2 2233
19.3 2168
19.4 2239
19.5 2235
19.6 2229
19.7 2295
19.8 2314
19.9 2355
20 2362
20.1 2351
20.2 2377
20.3 2312
20.4 2341
20.5 2421
20.6 2388
20.7 2417
20.8 2442
20.9 2481
21 2449
21.1 2506
21.2 2476
21.3 2471
21.4 2414
21.5 2480
21.6 2448
21.7 2425
21.8 2427
21.9 2348
22 2419
22.1 2476
22.2 2402
22.3 2356
22.4 2448
22.5 2285
22.6 2409
22.7 2346
22.8 2359
22.9 2282
23 2320
23.1 2307
23.2 2181
23.3 2288
23.4 2316
23.5 2260
23.6 2176
23.7 2129
23.8 2190
23.9 2167
24 2143
24.1 2102
24.2 2168
24.3 2290
24.4 2576
24.5 3094
24.6 2900
24.7 2313
24.8 2180
24.9 2054
25 2082
25.1 2355
25.2 3385
25.3 5046
25.4 2850
25.5 1973
25.6 1806
25.7 1887
25.8 1804
25.9 1784
26 1824
26.1 1774
26.2 1700
26.3 1730
26.4 1770
26.5 1821
26.6 2076
26.7 2319
26.8 3038
26.9 4075
27 2778
27.1 1883
27.2 1701
27.3 1686
27.4 1550
27.5 1538
27.6 1580
27.7 1531
27.8 1552
27.9 1572
28 1554
28.1 1657
28.2 1650
28.3 1524
28.4 1395
28.5 1489
28.6 1525
28.7 1470
28.8 1397
28.9 1423
29 1470
29.1 1683
29.2 1819
29.3 1730
29.4 1526
29.5 1370
29.6 1375
29.7 1277
29.8 1321
29.9 1282
30 1294