File: xrd-UiO-67/pxrddata/5-16.ASC
3 1983
3.1 1622
3.2 1483
3.3 1386
3.4 1288
3.5 1260
3.6 1222
3.7 1166
3.8 1089
3.9 1067
4 1038
4.1 953
4.2 878
4.3 906
4.4 845
4.5 863
4.6 764
4.7 799
4.8 756
4.9 808
5 766
5.1 734
5.2 719
5.3 702
5.4 681
5.5 721
5.6 699
5.7 660
5.8 709
5.9 693
6 693
6.1 682
6.2 709
6.3 672
6.4 693
6.5 659
6.6 723
6.7 709
6.8 737
6.9 747
7 704
7.1 702
7.2 750
7.3 722
7.4 710
7.5 770
7.6 744
7.7 754
7.8 754
7.9 837
8 802
8.1 841
8.2 822
8.3 901
8.4 1051
8.5 1273
8.6 1646
8.7 2493
8.8 4573
8.9 5386
9 5855
9.1 1291
9.2 1034
9.3 987
9.4 1026
9.5 1064
9.6 1283
9.7 1727
9.8 2708
9.9 6513
10 2019
10.1 1025
10.2 885
10.3 899
10.4 908
10.5 845
10.6 877
10.7 798
10.8 782
10.9 814
11 768
11.1 838
11.2 819
11.3 788
11.4 826
11.5 790
11.6 824
11.7 819
11.8 789
11.9 793
12 803
12.1 904
12.2 832
12.3 938
12.4 1079
12.5 1296
12.6 2101
12.7 1261
12.8 993
12.9 949
13 987
13.1 1063
13.2 1395
13.3 2169
13.4 3488
13.5 1152
13.6 940
13.7 932
13.8 973
13.9 860
14 922
14.1 963
14.2 941
14.3 1011
14.4 899
14.5 990
14.6 982
14.7 988
14.8 1013
14.9 974
15 996
15.1 1057
15.2 1022
15.3 1079
15.4 1057
15.5 1132
15.6 1078
15.7 1097
15.8 1069
15.9 1132
16 1138
16.1 1106
16.2 1153
16.3 1239
16.4 1211
16.5 1217
16.6 1277
16.7 1287
16.8 1478
16.9 1810
17 3230
17.1 1738
17.2 1328
17.3 1288
17.4 1367
17.5 1394
17.6 1443
17.7 1582
17.8 1554
17.9 1442
18 1589
18.1 1521
18.2 1607
18.3 1659
18.4 1663
18.5 1544
18.6 1580
18.7 1525
18.8 1531
18.9 1628
19 1655
19.1 1648
19.2 1659
19.3 1634
19.4 1689
19.5 1731
19.6 1796
19.7 1881
19.8 2471
19.9 2530
20 2373
20.1 2573
20.2 1963
20.3 1955
20.4 1909
20.5 1830
20.6 1878
20.7 1794
20.8 1876
20.9 1919
21 1854
21.1 1900
21.2 1881
21.3 1894
21.4 1818
21.5 1869
21.6 1899
21.7 1842
21.8 1813
21.9 1767
22 1817
22.1 1882
22.2 1921
22.3 2110
22.4 2016
22.5 1743
22.6 1783
22.7 1802
22.8 1714
22.9 1684
23 1761
23.1 1677
23.2 1664
23.3 1701
23.4 1579
23.5 1692
23.6 1592
23.7 1667
23.8 1632
23.9 1726
24 2123
24.1 2192
24.2 1871
24.3 1850
24.4 1844
24.5 2007
24.6 1929
24.7 1629
24.8 1556
24.9 1558
25 1766
25.1 2531
25.2 2936
25.3 4032
25.4 3123
25.5 1887
25.6 1689
25.7 1533
25.8 1443
25.9 1440
26 1454
26.1 1290
26.2 1377
26.3 1338
26.4 1350
26.5 1509
26.6 2013
26.7 2500
26.8 2503
26.9 2796
27 2596
27.1 3296
27.2 1890
27.3 1477
27.4 1412
27.5 1458
27.6 1353
27.7 1353
27.8 1286
27.9 1273
28 1211
28.1 1350
28.2 1392
28.3 1247
28.4 1319
28.5 1726
28.6 1782
28.7 1292
28.8 1172
28.9 1181
29 1163
29.1 1244
29.2 1291
29.3 1239
29.4 1118
29.5 1134
29.6 1102
29.7 1158
29.8 1298
29.9 2422
30 2199