File: xrd-UiO-67/pxrddata/5-20.ASC
3 2166
3.1 1678
3.2 1550
3.3 1453
3.4 1354
3.5 1374
3.6 1277
3.7 1247
3.8 1171
3.9 1082
4 1033
4.1 1051
4.2 979
4.3 911
4.4 825
4.5 823
4.6 824
4.7 749
4.8 793
4.9 735
5 751
5.1 741
5.2 671
5.3 702
5.4 709
5.5 726
5.6 726
5.7 715
5.8 718
5.9 705
6 702
6.1 743
6.2 772
6.3 720
6.4 692
6.5 740
6.6 729
6.7 729
6.8 738
6.9 740
7 733
7.1 743
7.2 770
7.3 732
7.4 732
7.5 762
7.6 765
7.7 729
7.8 686
7.9 662
8 687
8.1 662
8.2 631
8.3 671
8.4 602
8.5 666
8.6 611
8.7 605
8.8 595
8.9 611
9 596
9.1 568
9.2 607
9.3 550
9.4 588
9.5 553
9.6 556
9.7 552
9.8 596
9.9 560
10 524
10.1 521
10.2 499
10.3 518
10.4 554
10.5 526
10.6 516
10.7 497
10.8 506
10.9 515
11 490
11.1 502
11.2 556
11.3 511
11.4 519
11.5 506
11.6 506
11.7 521
11.8 558
11.9 525
12 535
12.1 533
12.2 526
12.3 571
12.4 485
12.5 513
12.6 583
12.7 528
12.8 564
12.9 542
13 509
13.1 532
13.2 541
13.3 582
13.4 579
13.5 545
13.6 533
13.7 587
13.8 576
13.9 579
14 542
14.1 568
14.2 548
14.3 534
14.4 553
14.5 581
14.6 582
14.7 580
14.8 568
14.9 577
15 565
15.1 637
15.2 628
15.3 631
15.4 622
15.5 644
15.6 621
15.7 647
15.8 623
15.9 616
16 701
16.1 678
16.2 709
16.3 704
16.4 710
16.5 746
16.6 783
16.7 764
16.8 942
16.9 1199
17 2114
17.1 2337
17.2 862
17.3 825
17.4 858
17.5 850
17.6 860
17.7 825
17.8 839
17.9 879
18 867
18.1 931
18.2 824
18.3 881
18.4 931
18.5 920
18.6 909
18.7 969
18.8 1001
18.9 1036
19 971
19.1 1012
19.2 1048
19.3 1048
19.4 1054
19.5 1000
19.6 1040
19.7 1092
19.8 1061
19.9 1118
20 1075
20.1 1099
20.2 1122
20.3 1128
20.4 1153
20.5 1177
20.6 1194
20.7 1176
20.8 1151
20.9 1227
21 1235
21.1 1255
21.2 1232
21.3 1230
21.4 1218
21.5 1145
21.6 1300
21.7 1275
21.8 1304
21.9 1329
22 1256
22.1 1256
22.2 1336
22.3 1353
22.4 1271
22.5 1320
22.6 1348
22.7 1279
22.8 1334
22.9 1282
23 1296
23.1 1283
23.2 1317
23.3 1297
23.4 1419
23.5 1323
23.6 1323
23.7 1313
23.8 1344
23.9 1328
24 1363
24.1 1322
24.2 1353
24.3 1444
24.4 1489
24.5 1698
24.6 1783
24.7 1579
24.8 1462
24.9 1468
25 1371
25.1 1481
25.2 1703
25.3 2366
25.4 2396
25.5 1496
25.6 1344
25.7 1334
25.8 1318
25.9 1320
26 1314
26.1 1310
26.2 1378
26.3 1259
26.4 1319
26.5 1321
26.6 1423
26.7 1692
26.8 1765
26.9 2221
27 1993
27.1 1532
27.2 1396
27.3 1291
27.4 1322
27.5 1212
27.6 1247
27.7 1269
27.8 1267
27.9 1252
28 1287
28.1 1278
28.2 1296
28.3 1187
28.4 1258
28.5 1189
28.6 1239
28.7 1236
28.8 1173
28.9 1206
29 1235
29.1 1264
29.2 1346
29.3 1386
29.4 1290
29.5 1206
29.6 1067
29.7 1148
29.8 1157
29.9 1156
30 1073