File: xrd-UiO-67/pxrddata/50-1.ASC
3 5730
3.1 4059
3.2 2778
3.3 1757
3.4 1336
3.5 1157
3.6 1166
3.7 1113
3.8 1016
3.9 1004
4 923
4.1 897
4.2 906
4.3 879
4.4 785
4.5 775
4.6 750
4.7 722
4.8 783
4.9 731
5 678
5.1 748
5.2 690
5.3 716
5.4 725
5.5 732
5.6 766
5.7 735
5.8 669
5.9 636
6 630
6.1 621
6.2 596
6.3 620
6.4 623
6.5 590
6.6 591
6.7 578
6.8 539
6.9 591
7 613
7.1 607
7.2 531
7.3 593
7.4 621
7.5 575
7.6 517
7.7 544
7.8 545
7.9 531
8 575
8.1 561
8.2 567
8.3 563
8.4 537
8.5 534
8.6 522
8.7 531
8.8 520
8.9 531
9 534
9.1 548
9.2 548
9.3 560
9.4 566
9.5 579
9.6 584
9.7 559
9.8 567
9.9 548
10 538
10.1 506
10.2 486
10.3 497
10.4 493
10.5 530
10.6 530
10.7 506
10.8 513
10.9 557
11 557
11.1 536
11.2 562
11.3 585
11.4 507
11.5 513
11.6 520
11.7 500
11.8 529
11.9 507
12 568
12.1 556
12.2 533
12.3 528
12.4 556
12.5 562
12.6 499
12.7 573
12.8 566
12.9 532
13 585
13.1 582
13.2 546
13.3 549
13.4 580
13.5 598
13.6 580
13.7 587
13.8 570
13.9 599
14 580
14.1 598
14.2 607
14.3 615
14.4 674
14.5 624
14.6 654
14.7 660
14.8 660
14.9 694
15 647
15.1 672
15.2 681
15.3 686
15.4 734
15.5 636
15.6 713
15.7 722
15.8 735
15.9 713
16 768
16.1 667
16.2 796
16.3 786
16.4 803
16.5 781
16.6 772
16.7 836
16.8 840
16.9 916
17 1052
17.1 1271
17.2 979
17.3 880
17.4 910
17.5 889
17.6 906
17.7 1008
17.8 952
17.9 993
18 956
18.1 966
18.2 1011
18.3 1062
18.4 1060
18.5 1037
18.6 1025
18.7 1074
18.8 1103
18.9 1114
19 1106
19.1 1137
19.2 1171
19.3 1222
19.4 1230
19.5 1149
19.6 1244
19.7 1245
19.8 1284
19.9 1279
20 1267
20.1 1312
20.2 1321
20.3 1318
20.4 1334
20.5 1410
20.6 1435
20.7 1450
20.8 1397
20.9 1439
21 1461
21.1 1450
21.2 1460
21.3 1469
21.4 1498
21.5 1477
21.6 1516
21.7 1531
21.8 1506
21.9 1494
22 1500
22.1 1527
22.2 1568
22.3 1568
22.4 1521
22.5 1549
22.6 1507
22.7 1498
22.8 1527
22.9 1530
23 1554
23.1 1541
23.2 1479
23.3 1614
23.4 1547
23.5 1499
23.6 1509
23.7 1533
23.8 1510
23.9 1569
24 1544
24.1 1520
24.2 1494
24.3 1530
24.4 1517
24.5 1581
24.6 1625
24.7 1595
24.8 1520
24.9 1589
25 1494
25.1 1512
25.2 1574
25.3 1676
25.4 1806
25.5 1571
25.6 1485
25.7 1472
25.8 1481
25.9 1388
26 1420
26.1 1431
26.2 1477
26.3 1517
26.4 1430
26.5 1432
26.6 1381
26.7 1524
26.8 1463
26.9 1643
27 1633
27.1 1500
27.2 1369
27.3 1438
27.4 1365
27.5 1324
27.6 1382
27.7 1342
27.8 1419
27.9 1364
28 1289
28.1 1365
28.2 1313
28.3 1374
28.4 1311
28.5 1329
28.6 1298
28.7 1293
28.8 1323
28.9 1293
29 1255
29.1 1310
29.2 1334
29.3 1290
29.4 1294
29.5 1278
29.6 1245
29.7 1212
29.8 1205
29.9 1268
30 1207