File: xrd-UiO-67/pxrddata/50-10.ASC
3 6057
3.06 4836
3.12 3908
3.18 3133
3.24 2673
3.3 2169
3.36 1746
3.42 1579
3.48 1405
3.54 1357
3.6 1252
3.66 1312
3.72 1274
3.78 1176
3.84 1181
3.9 1154
3.96 1166
4.02 1056
4.08 1072
4.14 1105
4.2 1078
4.26 998
4.32 1044
4.38 954
4.44 992
4.5 983
4.56 1008
4.62 977
4.68 967
4.74 962
4.8 1011
4.86 934
4.92 887
4.98 949
5.04 929
5.1 962
5.16 906
5.22 922
5.28 976
5.34 983
5.4 979
5.46 948
5.52 964
5.58 905
5.64 863
5.7 853
5.76 873
5.82 784
5.88 800
5.94 833
6 768
6.06 806
6.12 818
6.18 807
6.24 807
6.3 806
6.36 767
6.42 789
6.48 797
6.54 813
6.6 813
6.66 813
6.72 764
6.78 749
6.84 801
6.9 755
6.96 746
7.02 809
7.08 812
7.14 748
7.2 769
7.26 753
7.32 758
7.38 774
7.44 752
7.5 796
7.56 790
7.62 691
7.68 797
7.74 815
7.8 731
7.86 730
7.92 763
7.98 781
8.04 772
8.1 752
8.16 703
8.22 752
8.28 759
8.34 717
8.4 700
8.46 728
8.52 695
8.58 752
8.64 719
8.7 709
8.76 766
8.82 707
8.88 695
8.94 729
9 707
9.06 710
9.12 738
9.18 727
9.24 790
9.3 732
9.36 750
9.42 740
9.48 738
9.54 716
9.6 721
9.66 735
9.72 729
9.78 715
9.84 721
9.9 768
9.96 693
10.02 722
10.08 686
10.14 744
10.2 715
10.26 728
10.32 731
10.38 753
10.44 674
10.5 712
10.56 741
10.62 696
10.68 747
10.74 723
10.8 704
10.86 750
10.92 739
10.98 720
11.04 710
11.1 723
11.16 748
11.22 691
11.28 769
11.34 751
11.4 723
11.46 734
11.52 763
11.58 730
11.64 775
11.7 781
11.76 730
11.82 742
11.88 730
11.94 759
12 767
12.06 759
12.12 798
12.18 734
12.24 735
12.3 731
12.36 736
12.42 766
12.48 763
12.54 818
12.6 829
12.66 813
12.72 820
12.78 800
12.84 793
12.9 810
12.96 785
13.02 778
13.08 837
13.14 823
13.2 792
13.26 838
13.32 832
13.38 815
13.44 834
13.5 788
13.56 808
13.62 880
13.68 832
13.74 846
13.8 880
13.86 870
13.92 819
13.98 809
14.04 899
14.1 861
14.16 876
14.22 915
14.28 837
14.34 919
14.4 838
14.46 872
14.52 906
14.58 924
14.64 940
14.7 976
14.76 979
14.82 978
14.88 961
14.94 942
15 936
15.06 913
15.12 1025
15.18 1016
15.24 986
15.3 1002
15.36 1043
15.42 1032
15.48 1097
15.54 1075
15.6 1077
15.66 1040
15.72 1059
15.78 1099
15.84 1111
15.9 1120
15.96 1129
16.02 1136
16.08 1103
16.14 1134
16.2 1094
16.26 1150
16.32 1199
16.38 1174
16.44 1236
16.5 1174
16.56 1210
16.62 1183
16.68 1304
16.74 1245
16.8 1364
16.86 1390
16.92 1587
16.98 1880
17.04 1771
17.1 1357
17.16 1350
17.22 1362
17.28 1352
17.34 1318
17.4 1443
17.46 1346
17.52 1419
17.58 1417
17.64 1475
17.7 1481
17.76 1426
17.82 1383
17.88 1522
17.94 1551
18 1532
18.06 1547
18.12 1571
18.18 1531
18.24 1517
18.3 1555
18.36 1688
18.42 1662
18.48 1625
18.54 1673
18.6 1598
18.66 1644
18.72 1648
18.78 1672
18.84 1786
18.9 1729
18.96 1798
19.02 1758
19.08 1833
19.14 1809
19.2 1796
19.26 1744
19.32 1754
19.38 1896
19.44 1822
19.5 1842
19.56 1807
19.62 1899
19.68 1949
19.74 1990
19.8 1980
19.86 1918
19.92 1938
19.98 1921
20 2018