File: xrd-UiO-67/pxrddata/50-9.ASC
3 6615
3.06 5555
3.12 4487
3.18 3924
3.24 3277
3.3 2408
3.36 1861
3.42 1668
3.48 1578
3.54 1596
3.6 1719
3.66 1735
3.72 1776
3.78 1568
3.84 1401
3.9 1290
3.96 1183
4.02 1194
4.08 1122
4.14 1172
4.2 1111
4.26 1040
4.32 978
4.38 952
4.44 943
4.5 936
4.56 971
4.62 912
4.68 945
4.74 904
4.8 894
4.86 903
4.92 890
4.98 876
5.04 829
5.1 858
5.16 913
5.22 880
5.28 885
5.34 873
5.4 924
5.46 912
5.52 932
5.58 899
5.64 824
5.7 834
5.76 839
5.82 827
5.88 790
5.94 852
6 804
6.06 789
6.12 754
6.18 760
6.24 761
6.3 762
6.36 782
6.42 710
6.48 724
6.54 730
6.6 712
6.66 707
6.72 702
6.78 687
6.84 712
6.9 736
6.96 678
7.02 719
7.08 685
7.14 696
7.2 698
7.26 715
7.32 714
7.38 653
7.44 689
7.5 663
7.56 665
7.62 713
7.68 692
7.74 719
7.8 627
7.86 713
7.92 695
7.98 675
8.04 703
8.1 653
8.16 654
8.22 656
8.28 705
8.34 630
8.4 659
8.46 644
8.52 644
8.58 676
8.64 649
8.7 676
8.76 673
8.82 584
8.88 677
8.94 665
9 677
9.06 661
9.12 686
9.18 716
9.24 687
9.3 653
9.36 720
9.42 785
9.48 707
9.54 716
9.6 641
9.66 655
9.72 667
9.78 639
9.84 643
9.9 661
9.96 638
10.02 618
10.08 633
10.14 626
10.2 645
10.26 631
10.32 655
10.38 641
10.44 688
10.5 611
10.56 659
10.62 676
10.68 636
10.74 637
10.8 686
10.86 698
10.92 695
10.98 644
11.04 668
11.1 612
11.16 639
11.22 664
11.28 632
11.34 646
11.4 604
11.46 645
11.52 643
11.58 643
11.64 639
11.7 628
11.76 632
11.82 624
11.88 647
11.94 667
12 603
12.06 606
12.12 627
12.18 669
12.24 656
12.3 674
12.36 657
12.42 631
12.48 605
12.54 656
12.6 662
12.66 679
12.72 670
12.78 663
12.84 699
12.9 669
12.96 658
13.02 692
13.08 677
13.14 670
13.2 728
13.26 642
13.32 717
13.38 681
13.44 683
13.5 675
13.56 691
13.62 694
13.68 701
13.74 743
13.8 713
13.86 751
13.92 709
13.98 748
14.04 794
14.1 726
14.16 710
14.22 754
14.28 731
14.34 739
14.4 785
14.46 768
14.52 745
14.58 800
14.64 792
14.7 840
14.76 767
14.82 806
14.88 748
14.94 809
15 797
15.06 783
15.12 774
15.18 829
15.24 792
15.3 840
15.36 813
15.42 883
15.48 865
15.54 820
15.6 883
15.66 921
15.72 884
15.78 866
15.84 884
15.9 921
15.96 895
16.02 936
16.08 915
16.14 913
16.2 892
16.26 871
16.32 926
16.38 950
16.44 926
16.5 997
16.56 996
16.62 983
16.68 1009
16.74 1030
16.8 1071
16.86 1080
16.92 1245
16.98 1376
17.04 1369
17.1 1165
17.16 1122
17.22 1120
17.28 1078
17.34 1104
17.4 1156
17.46 1090
17.52 1113
17.58 1074
17.64 1137
17.7 1184
17.76 1177
17.82 1161
17.88 1114
17.94 1125
18 1220
18.06 1129
18.12 1216
18.18 1196
18.24 1193
18.3 1221
18.36 1274
18.42 1266
18.48 1232
18.54 1322
18.6 1318
18.66 1295
18.72 1400
18.78 1342
18.84 1339
18.9 1361
18.96 1327
19.02 1391
19.08 1435
19.14 1362
19.2 1424
19.26 1429
19.32 1432
19.38 1461
19.44 1481
19.5 1480
19.56 1445
19.62 1394
19.68 1469
19.74 1466
19.8 1488
19.86 1531
19.92 1548
19.98 1452
20 1534