File: xrd-UiO-67/pxrddata/51-1.ASC
3 5822
3.06 4630
3.12 3819
3.18 3050
3.24 2520
3.3 2114
3.36 1809
3.42 1737
3.48 1639
3.54 1576
3.6 1474
3.66 1415
3.72 1443
3.78 1397
3.84 1266
3.9 1302
3.96 1230
4.02 1198
4.08 1161
4.14 1118
4.2 1097
4.26 1028
4.32 1025
4.38 1011
4.44 1008
4.5 947
4.56 937
4.62 889
4.68 873
4.74 857
4.8 859
4.86 896
4.92 838
4.98 791
5.04 816
5.1 833
5.16 814
5.22 784
5.28 790
5.34 830
5.4 841
5.46 795
5.52 847
5.58 779
5.64 739
5.7 699
5.76 686
5.82 719
5.88 636
5.94 696
6 693
6.06 665
6.12 611
6.18 597
6.24 645
6.3 613
6.36 619
6.42 631
6.48 605
6.54 616
6.6 622
6.66 619
6.72 626
6.78 595
6.84 577
6.9 628
6.96 547
7.02 598
7.08 592
7.14 576
7.2 576
7.26 530
7.32 560
7.38 559
7.44 542
7.5 555
7.56 531
7.62 573
7.68 539
7.74 583
7.8 554
7.86 548
7.92 546
7.98 524
8.04 535
8.1 551
8.16 491
8.22 559
8.28 518
8.34 559
8.4 541
8.46 555
8.52 525
8.58 538
8.64 511
8.7 521
8.76 552
8.82 517
8.88 524
8.94 504
9 494
9.06 506
9.12 543
9.18 568
9.24 523
9.3 530
9.36 605
9.42 554
9.48 595
9.54 565
9.6 552
9.66 529
9.72 528
9.78 499
9.84 495
9.9 471
9.96 522
10.02 499
10.08 504
10.14 495
10.2 483
10.26 506
10.32 490
10.38 517
10.44 484
10.5 495
10.56 524
10.62 541
10.68 461
10.74 534
10.8 507
10.86 540
10.92 518
10.98 513
11.04 477
11.1 511
11.16 500
11.22 496
11.28 511
11.34 486
11.4 518
11.46 517
11.52 491
11.58 498
11.64 532
11.7 556
11.76 504
11.82 551
11.88 505
11.94 506
12 468
12.06 531
12.12 521
12.18 503
12.24 530
12.3 511
12.36 515
12.42 503
12.48 559
12.54 520
12.6 500
12.66 500
12.72 579
12.78 546
12.84 505
12.9 515
12.96 518
13.02 553
13.08 531
13.14 535
13.2 517
13.26 515
13.32 545
13.38 537
13.44 536
13.5 564
13.56 532
13.62 543
13.68 518
13.74 580
13.8 577
13.86 500
13.92 560
13.98 523
14.04 560
14.1 555
14.16 579
14.22 572
14.28 582
14.34 603
14.4 550
14.46 604
14.52 580
14.58 580
14.64 563
14.7 613
14.76 633
14.82 643
14.88 636
14.94 619
15 638
15.06 617
15.12 634
15.18 650
15.24 629
15.3 607
15.36 624
15.42 694
15.48 666
15.54 635
15.6 656
15.66 641
15.72 671
15.78 706
15.84 616
15.9 659
15.96 666
16.02 707
16.08 677
16.14 718
16.2 723
16.26 702
16.32 758
16.38 717
16.44 724
16.5 712
16.56 796
16.62 741
16.68 755
16.74 811
16.8 826
16.86 868
16.92 1055
16.98 1358
17.04 1426
17.1 1069
17.16 861
17.22 880
17.28 793
17.34 866
17.4 829
17.46 858
17.52 889
17.58 837
17.64 856
17.7 843
17.76 842
17.82 872
17.88 862
17.94 877
18 912
18.06 927
18.12 935
18.18 928
18.24 897
18.3 942
18.36 913
18.42 940
18.48 974
18.54 981
18.6 933
18.66 992
18.72 982
18.78 1012
18.84 1014
18.9 970
18.96 1052
19.02 1050
19.08 1025
19.14 1043
19.2 1027
19.26 1043
19.32 1022
19.38 1061
19.44 1060
19.5 1068
19.56 1070
19.62 1105
19.68 1110
19.74 1129
19.8 1125
19.86 1099
19.92 1092
19.98 1091
20 1176