File: xrd-UiO-67/pxrddata/51-9.ASC
3 5675
3.06 4576
3.12 3797
3.18 2934
3.24 2511
3.3 2058
3.36 1756
3.42 1584
3.48 1592
3.54 1572
3.6 1524
3.66 1482
3.72 1418
3.78 1431
3.84 1258
3.9 1323
3.96 1264
4.02 1163
4.08 1266
4.14 1251
4.2 1132
4.26 1130
4.32 1164
4.38 1082
4.44 1053
4.5 1024
4.56 1003
4.62 983
4.68 955
4.74 937
4.8 953
4.86 940
4.92 960
4.98 942
5.04 889
5.1 958
5.16 935
5.22 950
5.28 954
5.34 946
5.4 1005
5.46 1085
5.52 1007
5.58 892
5.64 889
5.7 833
5.76 802
5.82 831
5.88 788
5.94 810
6 837
6.06 824
6.12 800
6.18 783
6.24 781
6.3 800
6.36 781
6.42 764
6.48 785
6.54 770
6.6 753
6.66 764
6.72 723
6.78 723
6.84 769
6.9 742
6.96 774
7.02 757
7.08 749
7.14 727
7.2 675
7.26 710
7.32 720
7.38 768
7.44 715
7.5 717
7.56 722
7.62 684
7.68 735
7.74 701
7.8 674
7.86 684
7.92 659
7.98 697
8.04 693
8.1 649
8.16 676
8.22 672
8.28 674
8.34 646
8.4 653
8.46 653
8.52 697
8.58 669
8.64 634
8.7 667
8.76 645
8.82 626
8.88 631
8.94 602
9 631
9.06 705
9.12 645
9.18 635
9.24 710
9.3 644
9.36 681
9.42 690
9.48 658
9.54 658
9.6 655
9.66 658
9.72 630
9.78 634
9.84 665
9.9 664
9.96 591
10.02 574
10.08 579
10.14 612
10.2 584
10.26 578
10.32 644
10.38 553
10.44 595
10.5 584
10.56 578
10.62 569
10.68 647
10.74 538
10.8 573
10.86 641
10.92 623
10.98 606
11.04 627
11.1 633
11.16 583
11.22 555
11.28 622
11.34 567
11.4 605
11.46 597
11.52 631
11.58 598
11.64 576
11.7 623
11.76 626
11.82 599
11.88 592
11.94 605
12 580
12.06 618
12.12 622
12.18 614
12.24 577
12.3 637
12.36 604
12.42 556
12.48 579
12.54 598
12.6 616
12.66 612
12.72 607
12.78 619
12.84 634
12.9 624
12.96 601
13.02 598
13.08 602
13.14 630
13.2 612
13.26 614
13.32 631
13.38 674
13.44 624
13.5 623
13.56 652
13.62 606
13.68 663
13.74 642
13.8 691
13.86 590
13.92 684
13.98 684
14.04 666
14.1 683
14.16 674
14.22 687
14.28 646
14.34 692
14.4 678
14.46 664
14.52 654
14.58 688
14.64 689
14.7 713
14.76 714
14.82 755
14.88 681
14.94 750
15 745
15.06 738
15.12 677
15.18 723
15.24 738
15.3 692
15.36 721
15.42 747
15.48 750
15.54 741
15.6 746
15.66 766
15.72 754
15.78 756
15.84 741
15.9 750
15.96 802
16.02 772
16.08 795
16.14 813
16.2 813
16.26 776
16.32 772
16.38 878
16.44 848
16.5 837
16.56 810
16.62 891
16.68 895
16.74 929
16.8 904
16.86 958
16.92 1015
16.98 1190
17.04 1203
17.1 1040
17.16 976
17.22 964
17.28 929
17.34 974
17.4 940
17.46 936
17.52 990
17.58 1006
17.64 965
17.7 1022
17.76 1103
17.82 1070
17.88 1022
17.94 969
18 1025
18.06 1087
18.12 1081
18.18 1100
18.24 1084
18.3 1142
18.36 1073
18.42 1104
18.48 1131
18.54 1169
18.6 1220
18.66 1167
18.72 1133
18.78 1167
18.84 1151
18.9 1273
18.96 1204
19.02 1249
19.08 1192
19.14 1204
19.2 1198
19.26 1287
19.32 1204
19.38 1232
19.44 1293
19.5 1312
19.56 1300
19.62 1301
19.68 1258
19.74 1276
19.8 1369
19.86 1285
19.92 1360
19.98 1333
20 1358