File: xrd-UiO-67/pxrddata/52-12.ASC
3 5865
3.06 4689
3.12 3766
3.18 2928
3.24 2398
3.3 1799
3.36 1412
3.42 1312
3.48 1229
3.54 1125
3.6 1168
3.66 1126
3.72 1047
3.78 1059
3.84 1044
3.9 953
3.96 997
4.02 981
4.08 940
4.14 929
4.2 963
4.26 884
4.32 889
4.38 841
4.44 805
4.5 773
4.56 727
4.62 758
4.68 731
4.74 802
4.8 781
4.86 752
4.92 818
4.98 891
5.04 896
5.1 981
5.16 997
5.22 1148
5.28 1302
5.34 1580
5.4 2104
5.46 2641
5.52 1895
5.58 1633
5.64 1664
5.7 1819
5.76 1937
5.82 1864
5.88 1227
5.94 910
6 816
6.06 687
6.12 668
6.18 653
6.24 640
6.3 663
6.36 631
6.42 618
6.48 627
6.54 631
6.6 626
6.66 724
6.72 789
6.78 676
6.84 680
6.9 625
6.96 618
7.02 594
7.08 594
7.14 591
7.2 566
7.26 555
7.32 533
7.38 593
7.44 577
7.5 584
7.56 558
7.62 542
7.68 600
7.74 574
7.8 554
7.86 504
7.92 594
7.98 570
8.04 576
8.1 561
8.16 594
8.22 633
8.28 609
8.34 545
8.4 571
8.46 550
8.52 541
8.58 525
8.64 568
8.7 527
8.76 556
8.82 563
8.88 618
8.94 607
9 659
9.06 668
9.12 680
9.18 769
9.24 907
9.3 1064
9.36 1554
9.42 1088
9.48 707
9.54 616
9.6 602
9.66 598
9.72 575
9.78 568
9.84 602
9.9 637
9.96 617
10.02 651
10.08 590
10.14 665
10.2 716
10.26 690
10.32 685
10.38 624
10.44 583
10.5 600
10.56 604
10.62 648
10.68 694
10.74 809
10.8 954
10.86 938
10.92 925
10.98 977
11.04 849
11.1 683
11.16 620
11.22 593
11.28 611
11.34 587
11.4 649
11.46 631
11.52 662
11.58 710
11.64 645
11.7 623
11.76 597
11.82 573
11.88 641
11.94 588
12 627
12.06 619
12.12 614
12.18 674
12.24 670
12.3 651
12.36 649
12.42 584
12.48 656
12.54 604
12.6 593
12.66 646
12.72 595
12.78 614
12.84 645
12.9 661
12.96 626
13.02 642
13.08 676
13.14 637
13.2 624
13.26 670
13.32 682
13.38 656
13.44 649
13.5 670
13.56 722
13.62 698
13.68 623
13.74 675
13.8 677
13.86 655
13.92 646
13.98 658
14.04 659
14.1 670
14.16 756
14.22 761
14.28 790
14.34 758
14.4 720
14.46 709
14.52 757
14.58 703
14.64 713
14.7 767
14.76 750
14.82 762
14.88 803
14.94 736
15 743
15.06 757
15.12 777
15.18 775
15.24 742
15.3 733
15.36 816
15.42 760
15.48 796
15.54 791
15.6 804
15.66 811
15.72 761
15.78 839
15.84 857
15.9 824
15.96 846
16.02 871
16.08 870
16.14 861
16.2 893
16.26 864
16.32 893
16.38 916
16.44 890
16.5 847
16.56 943
16.62 993
16.68 935
16.74 960
16.8 988
16.86 953
16.92 1027
16.98 1147
17.04 1194
17.1 1085
17.16 1006
17.22 976
17.28 1010
17.34 1025
17.4 1046
17.46 1052
17.52 1008
17.58 1039
17.64 1073
17.7 1134
17.76 1121
17.82 1113
17.88 1098
17.94 1143
18 1138
18.06 1102
18.12 1168
18.18 1166
18.24 1173
18.3 1169
18.36 1157
18.42 1214
18.48 1237
18.54 1235
18.6 1238
18.66 1271
18.72 1290
18.78 1321
18.84 1379
18.9 1292
18.96 1326
19.02 1328
19.08 1396
19.14 1428
19.2 1407
19.26 1360
19.32 1381
19.38 1392
19.44 1538
19.5 1654
19.56 1549
19.62 1563
19.68 1507
19.74 1401
19.8 1493
19.86 1485
19.92 1513
19.98 1462
20 1486