File: xrd-UiO-67/pxrddata/52-11.ASC
3 6022
3.06 4939
3.12 3991
3.18 3148
3.24 2569
3.3 2061
3.36 1643
3.42 1517
3.48 1427
3.54 1405
3.6 1381
3.66 1293
3.72 1317
3.78 1238
3.84 1273
3.9 1241
3.96 1337
4.02 1280
4.08 1313
4.14 1197
4.2 1089
4.26 1022
4.32 975
4.38 936
4.44 925
4.5 906
4.56 944
4.62 877
4.68 900
4.74 890
4.8 911
4.86 944
4.92 994
4.98 963
5.04 985
5.1 1077
5.16 1081
5.22 1265
5.28 1438
5.34 1719
5.4 2103
5.46 2501
5.52 1926
5.58 1848
5.64 2081
5.7 2430
5.76 3079
5.82 3288
5.88 1762
5.94 1008
6 880
6.06 759
6.12 700
6.18 790
6.24 723
6.3 750
6.36 677
6.42 716
6.48 743
6.54 740
6.6 782
6.66 804
6.72 828
6.78 906
6.84 786
6.9 750
6.96 676
7.02 672
7.08 713
7.14 642
7.2 644
7.26 636
7.32 640
7.38 662
7.44 684
7.5 657
7.56 617
7.62 613
7.68 669
7.74 667
7.8 667
7.86 604
7.92 680
7.98 659
8.04 674
8.1 713
8.16 710
8.22 669
8.28 680
8.34 659
8.4 638
8.46 694
8.52 622
8.58 642
8.64 656
8.7 632
8.76 634
8.82 694
8.88 678
8.94 662
9 680
9.06 705
9.12 801
9.18 859
9.24 1045
9.3 1236
9.36 1678
9.42 1117
9.48 732
9.54 699
9.6 735
9.66 642
9.72 695
9.78 729
9.84 680
9.9 708
9.96 714
10.02 766
10.08 748
10.14 860
10.2 884
10.26 801
10.32 727
10.38 724
10.44 725
10.5 671
10.56 703
10.62 717
10.68 821
10.74 864
10.8 981
10.86 1029
10.92 1044
10.98 1237
11.04 926
11.1 758
11.16 771
11.22 750
11.28 697
11.34 739
11.4 800
11.46 831
11.52 825
11.58 824
11.64 734
11.7 745
11.76 725
11.82 689
11.88 740
11.94 712
12 731
12.06 726
12.12 761
12.18 780
12.24 769
12.3 847
12.36 828
12.42 778
12.48 782
12.54 717
12.6 772
12.66 703
12.72 734
12.78 704
12.84 718
12.9 737
12.96 755
13.02 773
13.08 794
13.14 741
13.2 755
13.26 844
13.32 812
13.38 837
13.44 839
13.5 827
13.56 821
13.62 831
13.68 863
13.74 823
13.8 843
13.86 802
13.92 827
13.98 811
14.04 842
14.1 889
14.16 914
14.22 907
14.28 866
14.34 835
14.4 914
14.46 871
14.52 842
14.58 906
14.64 925
14.7 921
14.76 981
14.82 1040
14.88 1015
14.94 997
15 979
15.06 981
15.12 965
15.18 982
15.24 999
15.3 1028
15.36 1027
15.42 1026
15.48 1009
15.54 1030
15.6 1049
15.66 999
15.72 1079
15.78 1111
15.84 1048
15.9 1116
15.96 1135
16.02 1091
16.08 1140
16.14 1120
16.2 1130
16.26 1162
16.32 1204
16.38 1166
16.44 1198
16.5 1182
16.56 1194
16.62 1271
16.68 1262
16.74 1312
16.8 1347
16.86 1478
16.92 1493
16.98 2065
17.04 2218
17.1 1591
17.16 1435
17.22 1379
17.28 1362
17.34 1409
17.4 1411
17.46 1414
17.52 1411
17.58 1437
17.64 1447
17.7 1447
17.76 1455
17.82 1486
17.88 1464
17.94 1494
18 1549
18.06 1562
18.12 1530
18.18 1542
18.24 1611
18.3 1634
18.36 1606
18.42 1631
18.48 1639
18.54 1657
18.6 1603
18.66 1784
18.72 1777
18.78 1753
18.84 1768
18.9 1799
18.96 1806
19.02 1842
19.08 1961
19.14 2026
19.2 1878
19.26 1861
19.32 1878
19.38 1894
19.44 1971
19.5 2172
19.56 2207
19.62 1989
19.68 1929
19.74 1897
19.8 1935
19.86 2007
19.92 2004
19.98 1943
20 1929