File: xrd-UiO-67/pxrddata/52-10.ASC
3 6315
3.06 5177
3.12 4205
3.18 3412
3.24 2678
3.3 2082
3.36 1787
3.42 1629
3.48 1531
3.54 1463
3.6 1414
3.66 1440
3.72 1396
3.78 1398
3.84 1301
3.9 1383
3.96 1355
4.02 1374
4.08 1419
4.14 1350
4.2 1221
4.26 1052
4.32 1027
4.38 952
4.44 970
4.5 930
4.56 931
4.62 914
4.68 901
4.74 920
4.8 881
4.86 922
4.92 921
4.98 956
5.04 943
5.1 1045
5.16 1058
5.22 1142
5.28 1330
5.34 1494
5.4 1942
5.46 2032
5.52 1672
5.58 1792
5.64 2033
5.7 2624
5.76 3595
5.82 3659
5.88 1553
5.94 944
6 781
6.06 767
6.12 719
6.18 720
6.24 719
6.3 732
6.36 725
6.42 693
6.48 722
6.54 729
6.6 814
6.66 765
6.72 905
6.78 897
6.84 784
6.9 687
6.96 657
7.02 613
7.08 602
7.14 660
7.2 649
7.26 629
7.32 626
7.38 673
7.44 640
7.5 654
7.56 664
7.62 622
7.68 637
7.74 656
7.8 627
7.86 632
7.92 668
7.98 675
8.04 683
8.1 703
8.16 635
8.22 640
8.28 641
8.34 619
8.4 629
8.46 611
8.52 627
8.58 603
8.64 631
8.7 592
8.76 628
8.82 630
8.88 661
8.94 648
9 712
9.06 705
9.12 767
9.18 864
9.24 969
9.3 1188
9.36 1596
9.42 996
9.48 681
9.54 692
9.6 651
9.66 642
9.72 710
9.78 670
9.84 686
9.9 644
9.96 677
10.02 701
10.08 750
10.14 836
10.2 938
10.26 794
10.32 688
10.38 668
10.44 701
10.5 671
10.56 667
10.62 746
10.68 780
10.74 795
10.8 914
10.86 915
10.92 1030
10.98 1264
11.04 907
11.1 698
11.16 653
11.22 713
11.28 689
11.34 677
11.4 775
11.46 845
11.52 938
11.58 820
11.64 790
11.7 759
11.76 684
11.82 681
11.88 733
11.94 676
12 680
12.06 753
12.12 738
12.18 779
12.24 782
12.3 811
12.36 743
12.42 735
12.48 729
12.54 708
12.6 743
12.66 746
12.72 706
12.78 696
12.84 690
12.9 730
12.96 735
13.02 718
13.08 711
13.14 732
13.2 741
13.26 769
13.32 784
13.38 799
13.44 801
13.5 793
13.56 813
13.62 737
13.68 760
13.74 785
13.8 756
13.86 731
13.92 734
13.98 776
14.04 778
14.1 762
14.16 814
14.22 817
14.28 847
14.34 850
14.4 854
14.46 799
14.52 844
14.58 822
14.64 825
14.7 874
14.76 882
14.82 911
14.88 878
14.94 830
15 885
15.06 847
15.12 836
15.18 835
15.24 967
15.3 939
15.36 874
15.42 914
15.48 881
15.54 890
15.6 893
15.66 869
15.72 976
15.78 908
15.84 910
15.9 915
15.96 914
16.02 945
16.08 954
16.14 977
16.2 953
16.26 1045
16.32 1040
16.38 990
16.44 982
16.5 1021
16.56 1040
16.62 1068
16.68 1005
16.74 1079
16.8 1025
16.86 1078
16.92 1174
16.98 1338
17.04 1198
17.1 1104
17.16 1096
17.22 1092
17.28 1140
17.34 1124
17.4 1066
17.46 1154
17.52 1128
17.58 1149
17.64 1166
17.7 1119
17.76 1169
17.82 1202
17.88 1183
17.94 1153
18 1195
18.06 1120
18.12 1203
18.18 1163
18.24 1179
18.3 1265
18.36 1205
18.42 1283
18.48 1204
18.54 1224
18.6 1259
18.66 1355
18.72 1359
18.78 1351
18.84 1304
18.9 1360
18.96 1321
19.02 1345
19.08 1439
19.14 1514
19.2 1470
19.26 1359
19.32 1407
19.38 1494
19.44 1495
19.5 1464
19.56 1701
19.62 1518
19.68 1495
19.74 1396
19.8 1379
19.86 1475
19.92 1498
19.98 1418
20 1471