File: xrd-UiO-67/pxrddata/52-3.ASC
3 5891
3.06 4863
3.12 3844
3.18 3127
3.24 2445
3.3 1951
3.36 1483
3.42 1417
3.48 1403
3.54 1294
3.6 1293
3.66 1224
3.72 1271
3.78 1287
3.84 1242
3.9 1309
3.96 1274
4.02 1283
4.08 1278
4.14 1250
4.2 1159
4.26 1130
4.32 1121
4.38 1079
4.44 1072
4.5 999
4.56 1008
4.62 1042
4.68 1017
4.74 1065
4.8 1142
4.86 1146
4.92 1158
4.98 1282
5.04 1272
5.1 1375
5.16 1487
5.22 1770
5.28 1954
5.34 2411
5.4 3199
5.46 3920
5.52 2316
5.58 1989
5.64 2249
5.7 2561
5.76 3065
5.82 3265
5.88 1769
5.94 1157
6 1009
6.06 926
6.12 863
6.18 862
6.24 831
6.3 809
6.36 837
6.42 759
6.48 820
6.54 852
6.6 846
6.66 893
6.72 941
6.78 978
6.84 944
6.9 794
6.96 784
7.02 720
7.08 764
7.14 762
7.2 748
7.26 786
7.32 715
7.38 748
7.44 746
7.5 713
7.56 702
7.62 686
7.68 743
7.74 718
7.8 729
7.86 743
7.92 761
7.98 762
8.04 757
8.1 757
8.16 755
8.22 734
8.28 716
8.34 743
8.4 765
8.46 740
8.52 742
8.58 740
8.64 753
8.7 759
8.76 732
8.82 723
8.88 762
8.94 798
9 847
9.06 897
9.12 922
9.18 1098
9.24 1226
9.3 1559
9.36 2114
9.42 1211
9.48 840
9.54 823
9.6 814
9.66 777
9.72 796
9.78 822
9.84 770
9.9 842
9.96 774
10.02 815
10.08 884
10.14 934
10.2 1002
10.26 908
10.32 784
10.38 802
10.44 820
10.5 836
10.56 877
10.62 885
10.68 973
10.74 1087
10.8 1372
10.86 1150
10.92 1198
10.98 1265
11.04 1076
11.1 863
11.16 801
11.22 833
11.28 791
11.34 844
11.4 925
11.46 930
11.52 945
11.58 928
11.64 871
11.7 845
11.76 820
11.82 817
11.88 823
11.94 823
12 855
12.06 809
12.12 924
12.18 919
12.24 924
12.3 904
12.36 933
12.42 849
12.48 840
12.54 850
12.6 892
12.66 888
12.72 897
12.78 882
12.84 912
12.9 880
12.96 864
13.02 890
13.08 887
13.14 928
13.2 946
13.26 897
13.32 958
13.38 956
13.44 996
13.5 960
13.56 928
13.62 932
13.68 956
13.74 916
13.8 1004
13.86 959
13.92 946
13.98 931
14.04 1047
14.1 993
14.16 1008
14.22 1077
14.28 1067
14.34 1073
14.4 1077
14.46 1133
14.52 1037
14.58 1018
14.64 1020
14.7 1140
14.76 1089
14.82 1163
14.88 1153
14.94 1118
15 1068
15.06 1111
15.12 1168
15.18 1154
15.24 1190
15.3 1189
15.36 1185
15.42 1179
15.48 1193
15.54 1192
15.6 1228
15.66 1242
15.72 1209
15.78 1240
15.84 1254
15.9 1257
15.96 1256
16.02 1323
16.08 1228
16.14 1331
16.2 1361
16.26 1330
16.32 1338
16.38 1425
16.44 1430
16.5 1366
16.56 1413
16.62 1441
16.68 1431
16.74 1441
16.8 1430
16.86 1421
16.92 1476
16.98 1521
17.04 1517
17.1 1551
17.16 1598
17.22 1579
17.28 1612
17.34 1650
17.4 1579
17.46 1659
17.52 1721
17.58 1634
17.64 1698
17.7 1699
17.76 1741
17.82 1704
17.88 1705
17.94 1776
18 1782
18.06 1786
18.12 1858
18.18 1740
18.24 1832
18.3 1833
18.36 1807
18.42 1891
18.48 1850
18.54 1927
18.6 1996
18.66 2055
18.72 2027
18.78 2016
18.84 2048
18.9 2015
18.96 2112
19.02 2152
19.08 2186
19.14 2243
19.2 2135
19.26 2172
19.32 2207
19.38 2227
19.44 2289
19.5 2365
19.56 2422
19.62 2324
19.68 2199
19.74 2207
19.8 2173
19.86 2285
19.92 2225
19.98 2226
20 2250