File: xrd-UiO-67/pxrddata/52-6.ASC
3 6686
3.06 5396
3.12 4372
3.18 3536
3.24 2839
3.3 2317
3.36 1876
3.42 1752
3.48 1706
3.54 1668
3.6 1606
3.66 1502
3.72 1463
3.78 1413
3.84 1404
3.9 1394
3.96 1364
4.02 1353
4.08 1386
4.14 1463
4.2 1235
4.26 1146
4.32 1082
4.38 1069
4.44 999
4.5 976
4.56 974
4.62 924
4.68 988
4.74 935
4.8 1000
4.86 927
4.92 964
4.98 937
5.04 959
5.1 985
5.16 1000
5.22 1011
5.28 1117
5.34 1225
5.4 1479
5.46 1631
5.52 1226
5.58 1376
5.64 1582
5.7 1870
5.76 2539
5.82 3400
5.88 1358
5.94 875
6 734
6.06 756
6.12 761
6.18 727
6.24 736
6.3 724
6.36 661
6.42 693
6.48 681
6.54 720
6.6 731
6.66 850
6.72 796
6.78 909
6.84 705
6.9 689
6.96 641
7.02 625
7.08 658
7.14 612
7.2 603
7.26 576
7.32 583
7.38 610
7.44 597
7.5 587
7.56 603
7.62 565
7.68 597
7.74 543
7.8 580
7.86 622
7.92 571
7.98 606
8.04 551
8.1 552
8.16 597
8.22 632
8.28 587
8.34 525
8.4 571
8.46 577
8.52 554
8.58 534
8.64 555
8.7 604
8.76 556
8.82 591
8.88 576
8.94 561
9 586
9.06 584
9.12 636
9.18 707
9.24 697
9.3 893
9.36 1413
9.42 787
9.48 608
9.54 562
9.6 549
9.66 538
9.72 536
9.78 612
9.84 560
9.9 509
9.96 566
10.02 614
10.08 599
10.14 676
10.2 784
10.26 649
10.32 545
10.38 562
10.44 526
10.5 585
10.56 548
10.62 535
10.68 611
10.74 636
10.8 755
10.86 736
10.92 815
10.98 1091
11.04 772
11.1 568
11.16 532
11.22 500
11.28 575
11.34 606
11.4 620
11.46 650
11.52 747
11.58 725
11.64 569
11.7 556
11.76 544
11.82 531
11.88 486
11.94 494
12 534
12.06 570
12.12 585
12.18 647
12.24 677
12.3 593
12.36 557
12.42 544
12.48 557
12.54 571
12.6 557
12.66 556
12.72 547
12.78 501
12.84 584
12.9 564
12.96 545
13.02 558
13.08 553
13.14 566
13.2 589
13.26 556
13.32 598
13.38 607
13.44 564
13.5 561
13.56 607
13.62 553
13.68 591
13.74 583
13.8 588
13.86 549
13.92 559
13.98 578
14.04 619
14.1 574
14.16 597
14.22 609
14.28 665
14.34 619
14.4 651
14.46 668
14.52 584
14.58 622
14.64 580
14.7 618
14.76 604
14.82 674
14.88 660
14.94 618
15 638
15.06 651
15.12 593
15.18 681
15.24 666
15.3 660
15.36 678
15.42 640
15.48 707
15.54 697
15.6 636
15.66 623
15.72 646
15.78 673
15.84 668
15.9 629
15.96 683
16.02 691
16.08 709
16.14 706
16.2 748
16.26 802
16.32 804
16.38 798
16.44 755
16.5 757
16.56 750
16.62 776
16.68 739
16.74 773
16.8 819
16.86 833
16.92 891
16.98 989
17.04 996
17.1 898
17.16 858
17.22 828
17.28 902
17.34 864
17.4 877
17.46 877
17.52 898
17.58 858
17.64 861
17.7 905
17.76 924
17.82 905
17.88 873
17.94 925
18 876
18.06 969
18.12 882
18.18 928
18.24 948
18.3 965
18.36 943
18.42 978
18.48 974
18.54 990
18.6 976
18.66 1027
18.72 1099
18.78 1103
18.84 1081
18.9 1041
18.96 960
19.02 1083
19.08 1174
19.14 1374
19.2 1251
19.26 1122
19.32 1123
19.38 1098
19.44 1167
19.5 1271
19.56 1276
19.62 1221
19.68 1232
19.74 1087
19.8 1198
19.86 1190
19.92 1341
19.98 1180
20 1203