File: xrd-UiO-67/pxrddata/52-9.ASC
3 6005
3.06 4859
3.12 3743
3.18 2971
3.24 2307
3.3 1872
3.36 1483
3.42 1335
3.48 1361
3.54 1261
3.6 1169
3.66 1181
3.72 1117
3.78 1111
3.84 1135
3.9 1087
3.96 1052
4.02 1118
4.08 1052
4.14 1005
4.2 942
4.26 996
4.32 917
4.38 882
4.44 891
4.5 892
4.56 807
4.62 819
4.68 794
4.74 864
4.8 854
4.86 807
4.92 843
4.98 841
5.04 843
5.1 916
5.16 1010
5.22 1165
5.28 1211
5.34 1371
5.4 1850
5.46 2137
5.52 1410
5.58 1414
5.64 1516
5.7 1663
5.76 2006
5.82 1848
5.88 1105
5.94 854
6 814
6.06 759
6.12 714
6.18 728
6.24 759
6.3 770
6.36 813
6.42 774
6.48 740
6.54 761
6.6 800
6.66 793
6.72 797
6.78 818
6.84 766
6.9 702
6.96 698
7.02 738
7.08 707
7.14 746
7.2 722
7.26 667
7.32 715
7.38 712
7.44 683
7.5 731
7.56 677
7.62 754
7.68 681
7.74 724
7.8 747
7.86 760
7.92 713
7.98 726
8.04 756
8.1 755
8.16 698
8.22 757
8.28 719
8.34 725
8.4 719
8.46 775
8.52 737
8.58 743
8.64 736
8.7 718
8.76 744
8.82 779
8.88 755
8.94 723
9 785
9.06 810
9.12 862
9.18 889
9.24 940
9.3 1145
9.36 1490
9.42 919
9.48 782
9.54 795
9.6 764
9.66 812
9.72 740
9.78 774
9.84 803
9.9 763
9.96 783
10.02 828
10.08 849
10.14 859
10.2 910
10.26 849
10.32 775
10.38 793
10.44 779
10.5 775
10.56 802
10.62 864
10.68 870
10.74 914
10.8 1014
10.86 986
10.92 1029
10.98 1077
11.04 935
11.1 847
11.16 786
11.22 809
11.28 846
11.34 845
11.4 855
11.46 887
11.52 880
11.58 868
11.64 867
11.7 864
11.76 850
11.82 779
11.88 870
11.94 849
12 858
12.06 892
12.12 896
12.18 850
12.24 899
12.3 904
12.36 904
12.42 909
12.48 877
12.54 937
12.6 908
12.66 900
12.72 929
12.78 941
12.84 913
12.9 935
12.96 928
13.02 907
13.08 944
13.14 926
13.2 950
13.26 884
13.32 967
13.38 991
13.44 984
13.5 1039
13.56 989
13.62 960
13.68 971
13.74 959
13.8 1067
13.86 994
13.92 1093
13.98 984
14.04 1078
14.1 1075
14.16 1110
14.22 1075
14.28 1126
14.34 1107
14.4 1123
14.46 1105
14.52 1170
14.58 1107
14.64 1078
14.7 1222
14.76 1235
14.82 1182
14.88 1150
14.94 1168
15 1194
15.06 1193
15.12 1185
15.18 1223
15.24 1257
15.3 1216
15.36 1142
15.42 1282
15.48 1278
15.54 1320
15.6 1269
15.66 1331
15.72 1267
15.78 1357
15.84 1360
15.9 1353
15.96 1357
16.02 1371
16.08 1388
16.14 1491
16.2 1507
16.26 1442
16.32 1475
16.38 1510
16.44 1472
16.5 1512
16.56 1540
16.62 1546
16.68 1553
16.74 1624
16.8 1599
16.86 1717
16.92 1733
16.98 1992
17.04 2100
17.1 1839
17.16 1732
17.22 1738
17.28 1747
17.34 1724
17.4 1819
17.46 1822
17.52 1873
17.58 1827
17.64 1830
17.7 1934
17.76 1806
17.82 1960
17.88 1988
17.94 1939
18 1949
18.06 2017
18.12 1952
18.18 2097
18.24 2007
18.3 2118
18.36 2004
18.42 2085
18.48 2142
18.54 2220
18.6 2151
18.66 2212
18.72 2241
18.78 2255
18.84 2216
18.9 2284
18.96 2334
19.02 2337
19.08 2388
19.14 2513
19.2 2453
19.26 2388
19.32 2454
19.38 2412
19.44 2552
19.5 2439
19.56 2638
19.62 2563
19.68 2511
19.74 2477
19.8 2598
19.86 2537
19.92 2579
19.98 2590
20 2560