File: xrd-UiO-67/pxrddata/53-10.ASC
3 2088
3.06 1998
3.12 1699
3.18 1577
3.24 1509
3.3 1572
3.36 1523
3.42 1494
3.48 1364
3.54 1374
3.6 1356
3.66 1360
3.72 1240
3.78 1226
3.84 1201
3.9 1152
3.96 1252
4.02 1127
4.08 1147
4.14 1098
4.2 1075
4.26 979
4.32 1021
4.38 955
4.44 895
4.5 931
4.56 931
4.62 934
4.68 915
4.74 910
4.8 915
4.86 911
4.92 865
4.98 909
5.04 923
5.1 993
5.16 996
5.22 1107
5.28 1066
5.34 1140
5.4 1266
5.46 1574
5.52 1363
5.58 1335
5.64 1363
5.7 1531
5.76 1739
5.82 1998
5.88 1548
5.94 942
6 799
6.06 705
6.12 715
6.18 661
6.24 699
6.3 651
6.36 656
6.42 649
6.48 647
6.54 653
6.6 653
6.66 716
6.72 717
6.78 675
6.84 694
6.9 620
6.96 592
7.02 549
7.08 551
7.14 574
7.2 567
7.26 526
7.32 543
7.38 560
7.44 610
7.5 547
7.56 546
7.62 518
7.68 528
7.74 540
7.8 512
7.86 574
7.92 532
7.98 564
8.04 546
8.1 552
8.16 559
8.22 563
8.28 592
8.34 604
8.4 598
8.46 554
8.52 548
8.58 576
8.64 526
8.7 561
8.76 548
8.82 565
8.88 600
8.94 581
9 588
9.06 622
9.12 601
9.18 664
9.24 738
9.3 831
9.36 1059
9.42 1041
9.48 657
9.54 627
9.6 599
9.66 602
9.72 615
9.78 643
9.84 621
9.9 618
9.96 591
10.02 646
10.08 614
10.14 711
10.2 743
10.26 678
10.32 647
10.38 600
10.44 559
10.5 597
10.56 585
10.62 621
10.68 655
10.74 632
10.8 757
10.86 799
10.92 783
10.98 868
11.04 807
11.1 625
11.16 659
11.22 556
11.28 587
11.34 556
11.4 599
11.46 627
11.52 587
11.58 637
11.64 645
11.7 601
11.76 557
11.82 543
11.88 540
11.94 595
12 570
12.06 594
12.12 602
12.18 590
12.24 588
12.3 626
12.36 627
12.42 621
12.48 573
12.54 600
12.6 581
12.66 580
12.72 559
12.78 561
12.84 615
12.9 574
12.96 608
13.02 585
13.08 566
13.14 604
13.2 586
13.26 620
13.32 598
13.38 656
13.44 650
13.5 637
13.56 576
13.62 626
13.68 577
13.74 616
13.8 658
13.86 579
13.92 612
13.98 627
14.04 612
14.1 642
14.16 653
14.22 630
14.28 689
14.34 697
14.4 695
14.46 683
14.52 676
14.58 735
14.64 717
14.7 675
14.76 718
14.82 729
14.88 735
14.94 684
15 758
15.06 761
15.12 735
15.18 764
15.24 780
15.3 763
15.36 711
15.42 763
15.48 735
15.54 774
15.6 710
15.66 767
15.72 748
15.78 774
15.84 803
15.9 816
15.96 748
16.02 829
16.08 777
16.14 838
16.2 797
16.26 822
16.32 894
16.38 844
16.44 858
16.5 870
16.56 876
16.62 876
16.68 905
16.74 872
16.8 929
16.86 957
16.92 1338
16.98 1540
17.04 1375
17.1 1017
17.16 1006
17.22 984
17.28 967
17.34 996
17.4 982
17.46 970
17.52 994
17.58 1009
17.64 1028
17.7 1007
17.76 1046
17.82 1090
17.88 1073
17.94 1064
18 1050
18.06 1087
18.12 1044
18.18 1098
18.24 1105
18.3 1121
18.36 1140
18.42 1048
18.48 1080
18.54 1137
18.6 1216
18.66 1214
18.72 1227
18.78 1207
18.84 1271
18.9 1196
18.96 1231
19.02 1257
19.08 1408
19.14 1394
19.2 1344
19.26 1295
19.32 1327
19.38 1334
19.44 1371
19.5 1396
19.56 1476
19.62 1406
19.68 1379
19.74 1309
19.8 1365
19.86 1367
19.92 1406
19.98 1437
20 1484