File: xrd-UiO-67/pxrddata/53-11.ASC
3 1646
3.06 1483
3.12 1356
3.18 1326
3.24 1279
3.3 1271
3.36 1261
3.42 1198
3.48 1129
3.54 1111
3.6 1075
3.66 1061
3.72 970
3.78 1022
3.84 1026
3.9 1073
3.96 1042
4.02 1042
4.08 1092
4.14 1064
4.2 1020
4.26 935
4.32 924
4.38 815
4.44 834
4.5 824
4.56 805
4.62 780
4.68 831
4.74 782
4.8 781
4.86 834
4.92 811
4.98 820
5.04 895
5.1 923
5.16 1067
5.22 1088
5.28 1247
5.34 1442
5.4 1705
5.46 2329
5.52 2120
5.58 1782
5.64 1838
5.7 2114
5.76 2708
5.82 3163
5.88 2280
5.94 1206
6 900
6.06 806
6.12 740
6.18 701
6.24 691
6.3 674
6.36 658
6.42 697
6.48 643
6.54 652
6.6 690
6.66 708
6.72 810
6.78 757
6.84 755
6.9 708
6.96 624
7.02 587
7.08 577
7.14 595
7.2 591
7.26 598
7.32 581
7.38 568
7.44 586
7.5 557
7.56 579
7.62 583
7.68 578
7.74 578
7.8 587
7.86 585
7.92 550
7.98 586
8.04 597
8.1 599
8.16 594
8.22 603
8.28 634
8.34 600
8.4 583
8.46 604
8.52 560
8.58 561
8.64 606
8.7 569
8.76 598
8.82 581
8.88 587
8.94 592
9 621
9.06 646
9.12 731
9.18 752
9.24 806
9.3 1035
9.36 1324
9.42 1441
9.48 753
9.54 656
9.6 628
9.66 578
9.72 625
9.78 600
9.84 631
9.9 674
9.96 589
10.02 661
10.08 663
10.14 737
10.2 748
10.26 785
10.32 677
10.38 668
10.44 626
10.5 615
10.56 633
10.62 717
10.68 627
10.74 742
10.8 832
10.86 937
10.92 944
10.98 1070
11.04 1012
11.1 688
11.16 679
11.22 635
11.28 622
11.34 637
11.4 711
11.46 693
11.52 722
11.58 726
11.64 754
11.7 668
11.76 637
11.82 638
11.88 644
11.94 607
12 652
12.06 648
12.12 667
12.18 703
12.24 778
12.3 709
12.36 691
12.42 688
12.48 684
12.54 613
12.6 622
12.66 657
12.72 657
12.78 683
12.84 649
12.9 706
12.96 597
13.02 691
13.08 650
13.14 679
13.2 681
13.26 706
13.32 711
13.38 740
13.44 718
13.5 736
13.56 761
13.62 720
13.68 712
13.74 731
13.8 701
13.86 750
13.92 749
13.98 767
14.04 719
14.1 753
14.16 707
14.22 754
14.28 752
14.34 809
14.4 836
14.46 780
14.52 810
14.58 771
14.64 799
14.7 763
14.76 792
14.82 860
14.88 877
14.94 826
15 858
15.06 827
15.12 853
15.18 816
15.24 869
15.3 881
15.36 885
15.42 890
15.48 925
15.54 902
15.6 894
15.66 887
15.72 887
15.78 885
15.84 958
15.9 942
15.96 940
16.02 930
16.08 928
16.14 982
16.2 1020
16.26 1047
16.32 1027
16.38 1016
16.44 970
16.5 1049
16.56 1004
16.62 1067
16.68 1052
16.74 1076
16.8 1104
16.86 1126
16.92 1170
16.98 1364
17.04 1305
17.1 1165
17.16 1103
17.22 1172
17.28 1204
17.34 1193
17.4 1243
17.46 1231
17.52 1279
17.58 1242
17.64 1198
17.7 1190
17.76 1335
17.82 1279
17.88 1260
17.94 1358
18 1274
18.06 1314
18.12 1346
18.18 1342
18.24 1336
18.3 1354
18.36 1305
18.42 1357
18.48 1441
18.54 1410
18.6 1400
18.66 1417
18.72 1494
18.78 1527
18.84 1502
18.9 1494
18.96 1567
19.02 1605
19.08 1590
19.14 1671
19.2 1696
19.26 1717
19.32 1699
19.38 1594
19.44 1726
19.5 1742
19.56 1838
19.62 1823
19.68 1700
19.74 1648
19.8 1680
19.86 1676
19.92 1676
19.98 1669
20 1733