File: xrd-UiO-67/pxrddata/53-3.ASC
3 1630
3.06 1430
3.12 1350
3.18 1256
3.24 1277
3.3 1257
3.36 1151
3.42 1186
3.48 1140
3.54 1111
3.6 1110
3.66 1052
3.72 1039
3.78 1070
3.84 1078
3.9 945
3.96 958
4.02 1022
4.08 1025
4.14 1014
4.2 946
4.26 951
4.32 926
4.38 885
4.44 882
4.5 847
4.56 837
4.62 834
4.68 883
4.74 824
4.8 849
4.86 890
4.92 889
4.98 885
5.04 980
5.1 1003
5.16 969
5.22 1071
5.28 1150
5.34 1271
5.4 1359
5.46 1604
5.52 1559
5.58 1512
5.64 1565
5.7 1686
5.76 1832
5.82 2195
5.88 1750
5.94 1157
6 951
6.06 894
6.12 774
6.18 760
6.24 740
6.3 710
6.36 682
6.42 682
6.48 695
6.54 739
6.6 705
6.66 736
6.72 690
6.78 777
6.84 726
6.9 699
6.96 657
7.02 603
7.08 598
7.14 662
7.2 561
7.26 604
7.32 612
7.38 564
7.44 584
7.5 613
7.56 575
7.62 587
7.68 603
7.74 620
7.8 542
7.86 562
7.92 566
7.98 610
8.04 661
8.1 587
8.16 610
8.22 631
8.28 630
8.34 582
8.4 610
8.46 608
8.52 574
8.58 590
8.64 595
8.7 574
8.76 588
8.82 605
8.88 668
8.94 637
9 679
9.06 659
9.12 689
9.18 756
9.24 763
9.3 860
9.36 1075
9.42 1138
9.48 814
9.54 698
9.6 692
9.66 669
9.72 688
9.78 710
9.84 644
9.9 666
9.96 661
10.02 677
10.08 673
10.14 744
10.2 750
10.26 759
10.32 732
10.38 663
10.44 634
10.5 692
10.56 685
10.62 690
10.68 676
10.74 728
10.8 753
10.86 780
10.92 845
10.98 866
11.04 934
11.1 793
11.16 691
11.22 645
11.28 674
11.34 685
11.4 675
11.46 715
11.52 724
11.58 737
11.64 682
11.7 674
11.76 648
11.82 640
11.88 643
11.94 661
12 655
12.06 654
12.12 635
12.18 662
12.24 662
12.3 689
12.36 646
12.42 664
12.48 639
12.54 633
12.6 588
12.66 619
12.72 653
12.78 660
12.84 610
12.9 623
12.96 646
13.02 676
13.08 641
13.14 647
13.2 657
13.26 674
13.32 705
13.38 680
13.44 659
13.5 725
13.56 669
13.62 708
13.68 704
13.74 677
13.8 666
13.86 721
13.92 678
13.98 698
14.04 708
14.1 731
14.16 769
14.22 712
14.28 751
14.34 735
14.4 753
14.46 864
14.52 770
14.58 795
14.64 720
14.7 790
14.76 802
14.82 785
14.88 799
14.94 831
15 816
15.06 847
15.12 855
15.18 881
15.24 833
15.3 843
15.36 841
15.42 887
15.48 858
15.54 861
15.6 887
15.66 906
15.72 892
15.78 913
15.84 888
15.9 908
15.96 882
16.02 892
16.08 943
16.14 938
16.2 998
16.26 977
16.32 996
16.38 974
16.44 1027
16.5 1007
16.56 996
16.62 1001
16.68 1061
16.74 1052
16.8 1071
16.86 1049
16.92 1185
16.98 1230
17.04 1254
17.1 1130
17.16 1117
17.22 1153
17.28 1147
17.34 1192
17.4 1198
17.46 1188
17.52 1137
17.58 1227
17.64 1217
17.7 1195
17.76 1246
17.82 1251
17.88 1284
17.94 1236
18 1299
18.06 1327
18.12 1321
18.18 1294
18.24 1382
18.3 1308
18.36 1397
18.42 1311
18.48 1334
18.54 1386
18.6 1381
18.66 1436
18.72 1430
18.78 1488
18.84 1534
18.9 1510
18.96 1476
19.02 1533
19.08 1597
19.14 1596
19.2 1679
19.26 1635
19.32 1566
19.38 1538
19.44 1682
19.5 1674
19.56 1768
19.62 1687
19.68 1723
19.74 1711
19.8 1606
19.86 1789
19.92 1650
19.98 1741
20 1727