File: xrd-UiO-67/pxrddata/53-6.ASC
3 2143
3.06 2005
3.12 1774
3.18 1829
3.24 1685
3.3 1720
3.36 1602
3.42 1504
3.48 1558
3.54 1498
3.6 1482
3.66 1399
3.72 1356
3.78 1327
3.84 1341
3.9 1365
3.96 1289
4.02 1372
4.08 1273
4.14 1308
4.2 1282
4.26 1250
4.32 1164
4.38 1241
4.44 1211
4.5 1199
4.56 1218
4.62 1223
4.68 1220
4.74 1189
4.8 1239
4.86 1248
4.92 1306
4.98 1394
5.04 1281
5.1 1374
5.16 1262
5.22 1394
5.28 1483
5.34 1587
5.4 1548
5.46 1604
5.52 1552
5.58 1610
5.64 1617
5.7 1767
5.76 1915
5.82 1836
5.88 1388
5.94 1161
6 1055
6.06 1047
6.12 969
6.18 965
6.24 926
6.3 969
6.36 853
6.42 906
6.48 934
6.54 899
6.6 855
6.66 840
6.72 843
6.78 818
6.84 789
6.9 779
6.96 785
7.02 721
7.08 734
7.14 734
7.2 710
7.26 733
7.32 702
7.38 735
7.44 696
7.5 688
7.56 724
7.62 695
7.68 699
7.74 658
7.8 697
7.86 687
7.92 672
7.98 681
8.04 649
8.1 707
8.16 685
8.22 651
8.28 708
8.34 718
8.4 679
8.46 696
8.52 709
8.58 725
8.64 663
8.7 703
8.76 729
8.82 737
8.88 676
8.94 761
9 704
9.06 727
9.12 834
9.18 906
9.24 935
9.3 997
9.36 1022
9.42 894
9.48 787
9.54 794
9.6 789
9.66 760
9.72 749
9.78 825
9.84 808
9.9 805
9.96 787
10.02 769
10.08 776
10.14 822
10.2 844
10.26 759
10.32 754
10.38 759
10.44 768
10.5 744
10.56 816
10.62 761
10.68 806
10.74 764
10.8 863
10.86 871
10.92 908
10.98 864
11.04 820
11.1 713
11.16 759
11.22 740
11.28 676
11.34 711
11.4 716
11.46 748
11.52 744
11.58 719
11.64 722
11.7 708
11.76 679
11.82 699
11.88 675
11.94 701
12 644
12.06 687
12.12 708
12.18 723
12.24 717
12.3 758
12.36 674
12.42 686
12.48 671
12.54 704
12.6 694
12.66 708
12.72 673
12.78 698
12.84 708
12.9 686
12.96 743
13.02 659
13.08 666
13.14 711
13.2 746
13.26 720
13.32 769
13.38 757
13.44 746
13.5 706
13.56 795
13.62 751
13.68 754
13.74 729
13.8 758
13.86 751
13.92 718
13.98 718
14.04 713
14.1 796
14.16 779
14.22 754
14.28 779
14.34 832
14.4 815
14.46 823
14.52 776
14.58 817
14.64 849
14.7 812
14.76 832
14.82 813
14.88 865
14.94 842
15 830
15.06 794
15.12 829
15.18 833
15.24 887
15.3 843
15.36 817
15.42 884
15.48 851
15.54 901
15.6 870
15.66 848
15.72 945
15.78 906
15.84 817
15.9 858
15.96 951
16.02 927
16.08 926
16.14 923
16.2 972
16.26 924
16.32 964
16.38 1025
16.44 989
16.5 1029
16.56 1016
16.62 1002
16.68 1022
16.74 1138
16.8 1106
16.86 1227
16.92 1512
16.98 1739
17.04 1485
17.1 1204
17.16 1137
17.22 1132
17.28 1151
17.34 1078
17.4 1166
17.46 1136
17.52 1160
17.58 1120
17.64 1117
17.7 1144
17.76 1148
17.82 1130
17.88 1204
17.94 1232
18 1227
18.06 1201
18.12 1211
18.18 1168
18.24 1216
18.3 1240
18.36 1247
18.42 1361
18.48 1294
18.54 1304
18.6 1248
18.66 1345
18.72 1327
18.78 1351
18.84 1351
18.9 1395
18.96 1394
19.02 1355
19.08 1460
19.14 1419
19.2 1495
19.26 1429
19.32 1448
19.38 1437
19.44 1482
19.5 1523
19.56 1544
19.62 1483
19.68 1361
19.74 1433
19.8 1516
19.86 1567
19.92 1515
19.98 1508
20 1472