File: xrd-UiO-67/pxrddata/53-7.ASC
3 1656
3.06 1384
3.12 1315
3.18 1280
3.24 1219
3.3 1236
3.36 1239
3.42 1188
3.48 1129
3.54 1152
3.6 1160
3.66 1145
3.72 1066
3.78 1086
3.84 1119
3.9 1114
3.96 1068
4.02 1111
4.08 1115
4.14 1165
4.2 1081
4.26 1114
4.32 998
4.38 1045
4.44 947
4.5 966
4.56 1032
4.62 1002
4.68 999
4.74 1027
4.8 1079
4.86 1016
4.92 1049
4.98 1145
5.04 1175
5.1 1077
5.16 1122
5.22 1248
5.28 1273
5.34 1375
5.4 1569
5.46 1806
5.52 1931
5.58 1580
5.64 1708
5.7 1785
5.76 2109
5.82 2516
5.88 2249
5.94 1432
6 1070
6.06 885
6.12 871
6.18 857
6.24 883
6.3 880
6.36 837
6.42 753
6.48 836
6.54 828
6.6 782
6.66 840
6.72 867
6.78 895
6.84 919
6.9 823
6.96 725
7.02 717
7.08 693
7.14 675
7.2 718
7.26 665
7.32 694
7.38 649
7.44 687
7.5 674
7.56 646
7.62 684
7.68 624
7.74 684
7.8 681
7.86 645
7.92 644
7.98 704
8.04 683
8.1 669
8.16 722
8.22 702
8.28 712
8.34 686
8.4 717
8.46 679
8.52 717
8.58 703
8.64 689
8.7 703
8.76 687
8.82 742
8.88 694
8.94 737
9 737
9.06 760
9.12 784
9.18 798
9.24 878
9.3 1012
9.36 1098
9.42 1391
9.48 896
9.54 782
9.6 742
9.66 759
9.72 777
9.78 775
9.84 761
9.9 793
9.96 775
10.02 780
10.08 836
10.14 814
10.2 868
10.26 886
10.32 808
10.38 808
10.44 752
10.5 766
10.56 764
10.62 777
10.68 809
10.74 794
10.8 840
10.86 985
10.92 928
10.98 1035
11.04 1125
11.1 878
11.16 801
11.22 777
11.28 729
11.34 744
11.4 781
11.46 794
11.52 828
11.58 902
11.64 859
11.7 773
11.76 820
11.82 747
11.88 732
11.94 761
12 788
12.06 743
12.12 774
12.18 776
12.24 826
12.3 836
12.36 774
12.42 804
12.48 812
12.54 755
12.6 771
12.66 746
12.72 799
12.78 715
12.84 796
12.9 721
12.96 832
13.02 787
13.08 818
13.14 807
13.2 829
13.26 823
13.32 811
13.38 901
13.44 867
13.5 872
13.56 835
13.62 852
13.68 901
13.74 821
13.8 879
13.86 897
13.92 852
13.98 824
14.04 924
14.1 937
14.16 970
14.22 917
14.28 972
14.34 934
14.4 929
14.46 1039
14.52 970
14.58 940
14.64 957
14.7 949
14.76 979
14.82 988
14.88 1013
14.94 1031
15 1048
15.06 1001
15.12 1072
15.18 1038
15.24 1089
15.3 1057
15.36 1030
15.42 1063
15.48 1090
15.54 1097
15.6 1153
15.66 1092
15.72 1142
15.78 1062
15.84 1120
15.9 1149
15.96 1121
16.02 1134
16.08 1138
16.14 1160
16.2 1230
16.26 1170
16.32 1156
16.38 1332
16.44 1276
16.5 1327
16.56 1283
16.62 1295
16.68 1338
16.74 1317
16.8 1336
16.86 1396
16.92 1440
16.98 1794
17.04 2036
17.1 1995
17.16 1493
17.22 1412
17.28 1421
17.34 1453
17.4 1435
17.46 1464
17.52 1486
17.58 1485
17.64 1531
17.7 1535
17.76 1514
17.82 1569
17.88 1500
17.94 1547
18 1568
18.06 1571
18.12 1564
18.18 1551
18.24 1658
18.3 1601
18.36 1599
18.42 1670
18.48 1676
18.54 1736
18.6 1717
18.66 1756
18.72 1733
18.78 1796
18.84 1789
18.9 1737
18.96 1768
19.02 1822
19.08 1913
19.14 1904
19.2 1907
19.26 1924
19.32 1868
19.38 1906
19.44 1862
19.5 1971
19.56 2091
19.62 1958
19.68 1904
19.74 1896
19.8 1885
19.86 1905
19.92 1996
19.98 1964
20 1955