File: xrd-UiO-67/pxrddata/53-9.ASC
3 1873
3.06 1654
3.12 1539
3.18 1439
3.24 1415
3.3 1369
3.36 1228
3.42 1254
3.48 1239
3.54 1164
3.6 1128
3.66 1135
3.72 1074
3.78 1055
3.84 1028
3.9 941
3.96 996
4.02 984
4.08 961
4.14 931
4.2 864
4.26 808
4.32 813
4.38 750
4.44 758
4.5 766
4.56 769
4.62 774
4.68 718
4.74 725
4.8 663
4.86 707
4.92 750
4.98 744
5.04 801
5.1 757
5.16 790
5.22 814
5.28 850
5.34 977
5.4 1057
5.46 1008
5.52 1008
5.58 1061
5.64 1158
5.7 1392
5.76 1621
5.82 1234
5.88 891
5.94 745
6 708
6.06 707
6.12 627
6.18 676
6.24 642
6.3 643
6.36 671
6.42 650
6.48 655
6.54 643
6.6 644
6.66 648
6.72 689
6.78 661
6.84 626
6.9 604
6.96 581
7.02 590
7.08 549
7.14 609
7.2 591
7.26 562
7.32 576
7.38 558
7.44 532
7.5 551
7.56 601
7.62 607
7.68 550
7.74 529
7.8 557
7.86 559
7.92 523
7.98 570
8.04 552
8.1 560
8.16 557
8.22 569
8.28 566
8.34 557
8.4 568
8.46 526
8.52 555
8.58 564
8.64 570
8.7 616
8.76 593
8.82 621
8.88 604
8.94 594
9 597
9.06 618
9.12 690
9.18 714
9.24 792
9.3 1013
9.36 907
9.42 633
9.48 618
9.54 583
9.6 627
9.66 605
9.72 610
9.78 610
9.84 620
9.9 638
9.96 595
10.02 622
10.08 670
10.14 682
10.2 686
10.26 601
10.32 652
10.38 598
10.44 607
10.5 617
10.56 615
10.62 640
10.68 714
10.74 720
10.8 711
10.86 826
10.92 903
10.98 792
11.04 638
11.1 610
11.16 586
11.22 598
11.28 658
11.34 610
11.4 668
11.46 685
11.52 657
11.58 565
11.64 644
11.7 622
11.76 561
11.82 603
11.88 589
11.94 590
12 621
12.06 621
12.12 620
12.18 613
12.24 603
12.3 652
12.36 634
12.42 614
12.48 586
12.54 648
12.6 602
12.66 590
12.72 571
12.78 630
12.84 618
12.9 608
12.96 608
13.02 594
13.08 598
13.14 630
13.2 660
13.26 632
13.32 694
13.38 640
13.44 668
13.5 643
13.56 663
13.62 656
13.68 640
13.74 642
13.8 673
13.86 653
13.92 673
13.98 649
14.04 696
14.1 708
14.16 698
14.22 716
14.28 700
14.34 678
14.4 735
14.46 664
14.52 697
14.58 683
14.64 691
14.7 758
14.76 772
14.82 767
14.88 725
14.94 774
15 732
15.06 751
15.12 730
15.18 784
15.24 777
15.3 763
15.36 784
15.42 795
15.48 804
15.54 772
15.6 802
15.66 807
15.72 820
15.78 815
15.84 789
15.9 803
15.96 820
16.02 820
16.08 859
16.14 847
16.2 861
16.26 921
16.32 867
16.38 895
16.44 904
16.5 894
16.56 872
16.62 945
16.68 910
16.74 942
16.8 928
16.86 981
16.92 1017
16.98 1013
17.04 950
17.1 974
17.16 966
17.22 980
17.28 1024
17.34 998
17.4 993
17.46 1010
17.52 1002
17.58 987
17.64 1017
17.7 1018
17.76 1056
17.82 1109
17.88 1036
17.94 1085
18 1055
18.06 1100
18.12 1116
18.18 1111
18.24 1095
18.3 1121
18.36 1156
18.42 1112
18.48 1190
18.54 1137
18.6 1174
18.66 1155
18.72 1210
18.78 1233
18.84 1184
18.9 1232
18.96 1213
19.02 1317
19.08 1360
19.14 1304
19.2 1282
19.26 1282
19.32 1302
19.38 1356
19.44 1395
19.5 1339
19.56 1409
19.62 1343
19.68 1309
19.74 1313
19.8 1344
19.86 1369
19.92 1409
19.98 1330
20 1249