File: xrd-UiO-67/pxrddata/6-12.ASC
3 2160
3.06 1729
3.12 1481
3.18 1434
3.24 1393
3.3 1318
3.36 1289
3.42 1244
3.48 1242
3.54 1141
3.6 1133
3.66 1156
3.72 1165
3.78 1071
3.84 1029
3.9 1036
3.96 1002
4.02 1018
4.08 969
4.14 933
4.2 932
4.26 880
4.32 899
4.38 900
4.44 883
4.5 896
4.56 865
4.62 886
4.68 853
4.74 816
4.8 785
4.86 753
4.92 831
4.98 776
5.04 804
5.1 819
5.16 771
5.22 772
5.28 814
5.34 764
5.4 736
5.46 748
5.52 737
5.58 759
5.64 737
5.7 724
5.76 735
5.82 765
5.88 768
5.94 742
6 736
6.06 725
6.12 776
6.18 740
6.24 775
6.3 743
6.36 758
6.42 736
6.48 761
6.54 754
6.6 730
6.66 724
6.72 774
6.78 745
6.84 795
6.9 729
6.96 802
7.02 712
7.08 743
7.14 765
7.2 753
7.26 774
7.32 783
7.38 842
7.44 788
7.5 728
7.56 723
7.62 756
7.68 810
7.74 793
7.8 749
7.86 798
7.92 704
7.98 803
8.04 789
8.1 755
8.16 768
8.22 722
8.28 745
8.34 700
8.4 729
8.46 787
8.52 761
8.58 802
8.64 792
8.7 836
8.76 820
8.82 771
8.88 770
8.94 851
9 831
9.06 814
9.12 808
9.18 859
9.24 756
9.3 787
9.36 773
9.42 763
9.48 782
9.54 709
9.6 729
9.66 726
9.72 680
9.78 710
9.84 687
9.9 695
9.96 719
10.02 772
10.08 711
10.14 681
10.2 738
10.26 777
10.32 700
10.38 685
10.44 726
10.5 713
10.56 737
10.62 729
10.68 769
10.74 692
10.8 722
10.86 753
10.92 757
10.98 707
11.04 744
11.1 700
11.16 688
11.22 750
11.28 775
11.34 659
11.4 713
11.46 732
11.52 743
11.58 720
11.64 730
11.7 734
11.76 737
11.82 746
11.88 739
11.94 755
12 747
12.06 739
12.12 757
12.18 767
12.24 727
12.3 732
12.36 741
12.42 724
12.48 728
12.54 788
12.6 824
12.66 768
12.72 728
12.78 731
12.84 764
12.9 803
12.96 813
13.02 781
13.08 769
13.14 781
13.2 727
13.26 789
13.32 712
13.38 805
13.44 751
13.5 772
13.56 812
13.62 814
13.68 782
13.74 808
13.8 817
13.86 761
13.92 782
13.98 779
14.04 798
14.1 837
14.16 805
14.22 813
14.28 811
14.34 821
14.4 851
14.46 857
14.52 810
14.58 811
14.64 803
14.7 860
14.76 849
14.82 852
14.88 860
14.94 844
15 879
15.06 836
15.12 900
15.18 897
15.24 861
15.3 952
15.36 904
15.42 917
15.48 922
15.54 919
15.6 946
15.66 960
15.72 957
15.78 948
15.84 964
15.9 1010
15.96 955
16.02 996
16.08 1016
16.14 996
16.2 1039
16.26 1029
16.32 1005
16.38 1083
16.44 1070
16.5 1077
16.56 1045
16.62 1067
16.68 1056
16.74 1108
16.8 1112
16.86 1184
16.92 1269
16.98 1260
17.04 1425
17.1 1464
17.16 1570
17.22 1492
17.28 1225
17.34 1227
17.4 1254
17.46 1193
17.52 1265
17.58 1235
17.64 1230
17.7 1324
17.76 1252
17.82 1246
17.88 1284
17.94 1336
18 1378
18.06 1378
18.12 1379
18.18 1333
18.24 1419
18.3 1353
18.36 1414
18.42 1470
18.48 1445
18.54 1421
18.6 1444
18.66 1458
18.72 1511
18.78 1569
18.84 1526
18.9 1607
18.96 1498
19.02 1590
19.08 1553
19.14 1565
19.2 1626
19.26 1548
19.32 1633
19.38 1587
19.44 1698
19.5 1730
19.56 1702
19.62 1768
19.68 1742
19.74 1817
19.8 1750
19.86 1681
19.92 1793
19.98 1812
20 1821