File: xrd-UiO-67/pxrddata/6-13.ASC
3 2066
3.06 1683
3.12 1488
3.18 1531
3.24 1408
3.3 1345
3.36 1372
3.42 1406
3.48 1359
3.54 1357
3.6 1314
3.66 1321
3.72 1287
3.78 1259
3.84 1247
3.9 1239
3.96 1308
4.02 1311
4.08 1292
4.14 1284
4.2 1290
4.26 1296
4.32 1311
4.38 1295
4.44 1347
4.5 1338
4.56 1378
4.62 1382
4.68 1370
4.74 1284
4.8 1425
4.86 1383
4.92 1397
4.98 1388
5.04 1403
5.1 1397
5.16 1296
5.22 1467
5.28 1452
5.34 1390
5.4 1503
5.46 1344
5.52 1452
5.58 1354
5.64 1357
5.7 1421
5.76 1359
5.82 1344
5.88 1359
5.94 1262
6 1269
6.06 1225
6.12 1272
6.18 1200
6.24 1172
6.3 1244
6.36 1130
6.42 1199
6.48 1083
6.54 1045
6.6 1069
6.66 1113
6.72 1041
6.78 1036
6.84 1004
6.9 1010
6.96 1049
7.02 1005
7.08 957
7.14 973
7.2 986
7.26 906
7.32 996
7.38 932
7.44 918
7.5 949
7.56 954
7.62 941
7.68 950
7.74 962
7.8 877
7.86 894
7.92 908
7.98 891
8.04 885
8.1 901
8.16 911
8.22 920
8.28 904
8.34 944
8.4 887
8.46 870
8.52 851
8.58 875
8.64 826
8.7 830
8.76 907
8.82 897
8.88 962
8.94 886
9 886
9.06 861
9.12 859
9.18 889
9.24 838
9.3 922
9.36 866
9.42 850
9.48 954
9.54 895
9.6 928
9.66 961
9.72 890
9.78 926
9.84 902
9.9 936
9.96 923
10.02 960
10.08 956
10.14 884
10.2 928
10.26 893
10.32 877
10.38 942
10.44 926
10.5 894
10.56 857
10.62 865
10.68 939
10.74 907
10.8 915
10.86 978
10.92 849
10.98 920
11.04 927
11.1 917
11.16 917
11.22 923
11.28 929
11.34 934
11.4 910
11.46 924
11.52 932
11.58 897
11.64 897
11.7 943
11.76 842
11.82 936
11.88 924
11.94 947
12 929
12.06 869
12.12 952
12.18 886
12.24 931
12.3 928
12.36 931
12.42 910
12.48 946
12.54 960
12.6 946
12.66 986
12.72 922
12.78 968
12.84 915
12.9 910
12.96 967
13.02 992
13.08 941
13.14 1000
13.2 992
13.26 991
13.32 947
13.38 1001
13.44 980
13.5 1019
13.56 974
13.62 973
13.68 960
13.74 1000
13.8 976
13.86 1045
13.92 1038
13.98 1041
14.04 1036
14.1 1065
14.16 1009
14.22 1080
14.28 1113
14.34 1057
14.4 1085
14.46 1101
14.52 1061
14.58 1083
14.64 1105
14.7 1037
14.76 1064
14.82 1124
14.88 1103
14.94 1099
15 1071
15.06 1117
15.12 1115
15.18 1110
15.24 1142
15.3 1115
15.36 1149
15.42 1055
15.48 1108
15.54 1199
15.6 1165
15.66 1171
15.72 1161
15.78 1109
15.84 1213
15.9 1201
15.96 1216
16.02 1256
16.08 1209
16.14 1202
16.2 1265
16.26 1221
16.32 1214
16.38 1280
16.44 1263
16.5 1250
16.56 1255
16.62 1315
16.68 1260
16.74 1303
16.8 1355
16.86 1366
16.92 1468
16.98 1384
17.04 1430
17.1 1375
17.16 1364
17.22 1381
17.28 1413
17.34 1413
17.4 1406
17.46 1479
17.52 1409
17.58 1502
17.64 1518
17.7 1450
17.76 1514
17.82 1494
17.88 1492
17.94 1501
18 1521
18.06 1503
18.12 1521
18.18 1560
18.24 1590
18.3 1609
18.36 1609
18.42 1615
18.48 1586
18.54 1654
18.6 1689
18.66 1685
18.72 1645
18.78 1611
18.84 1677
18.9 1637
18.96 1699
19.02 1698
19.08 1764
19.14 1742
19.2 1718
19.26 1813
19.32 1695
19.38 1738
19.44 1800
19.5 1786
19.56 1764
19.62 1847
19.68 1772
19.74 1855
19.8 1821
19.86 1810
19.92 1858
19.98 1865
20 1888