File: xrd-UiO-67/pxrddata/6-16.ASC
3 2278
3.06 1871
3.12 1744
3.18 1566
3.24 1519
3.3 1547
3.36 1587
3.42 1544
3.48 1503
3.54 1506
3.6 1540
3.66 1500
3.72 1514
3.78 1461
3.84 1548
3.9 1654
3.96 1734
4.02 1933
4.08 1970
4.14 2039
4.2 1704
4.26 1398
4.32 1280
4.38 1254
4.44 1186
4.5 1189
4.56 1206
4.62 1187
4.68 1241
4.74 1277
4.8 1343
4.86 1342
4.92 1473
4.98 1560
5.04 1699
5.1 1933
5.16 2212
5.22 2608
5.28 3076
5.34 3722
5.4 5279
5.46 4865
5.52 4145
5.58 4670
5.64 5683
5.7 7678
5.76 10410
5.82 8851
5.88 3926
5.94 2141
6 1601
6.06 1486
6.12 1397
6.18 1306
6.24 1276
6.3 1283
6.36 1245
6.42 1254
6.48 1225
6.54 1342
6.6 1434
6.66 1552
6.72 1775
6.78 1746
6.84 1391
6.9 1203
6.96 1164
7.02 1013
7.08 1022
7.14 1028
7.2 999
7.26 1030
7.32 1029
7.38 1018
7.44 991
7.5 986
7.56 954
7.62 1003
7.68 969
7.74 984
7.8 999
7.86 1047
7.92 1065
7.98 1072
8.04 1090
8.1 1093
8.16 1167
8.22 1091
8.28 1052
8.34 966
8.4 1031
8.46 978
8.52 961
8.58 1002
8.64 1004
8.7 1020
8.76 1071
8.82 1116
8.88 1092
8.94 1176
9 1191
9.06 1353
9.12 1548
9.18 1755
9.24 2216
9.3 3294
9.36 3380
9.42 1594
9.48 1156
9.54 1114
9.6 1122
9.66 1157
9.72 1137
9.78 1208
9.84 1229
9.9 1196
9.96 1288
10.02 1349
10.08 1509
10.14 1709
10.2 1738
10.26 1434
10.32 1218
10.38 1179
10.44 1123
10.5 1151
10.56 1192
10.62 1239
10.68 1464
10.74 1688
10.8 1828
10.86 1893
10.92 2346
10.98 2485
11.04 1572
11.1 1221
11.16 1232
11.22 1228
11.28 1258
11.34 1321
11.4 1445
11.46 1630
11.52 1608
11.58 1377
11.64 1298
11.7 1158
11.76 1127
11.82 1136
11.88 1098
11.94 1149
12 1136
12.06 1236
12.12 1244
12.18 1365
12.24 1308
12.3 1202
12.36 1185
12.42 1101
12.48 1101
12.54 1087
12.6 1030
12.66 1005
12.72 1001
12.78 1074
12.84 1075
12.9 1090
12.96 1107
13.02 1062
13.08 1127
13.14 1161
13.2 1134
13.26 1209
13.32 1228
13.38 1173
13.44 1204
13.5 1161
13.56 1177
13.62 1096
13.68 1143
13.74 1092
13.8 1159
13.86 1081
13.92 1116
13.98 1146
14.04 1136
14.1 1181
14.16 1178
14.22 1260
14.28 1224
14.34 1316
14.4 1382
14.46 1171
14.52 1213
14.58 1227
14.64 1260
14.7 1222
14.76 1295
14.82 1306
14.88 1343
14.94 1269
15 1210
15.06 1267
15.12 1239
15.18 1328
15.24 1289
15.3 1277
15.36 1242
15.42 1275
15.48 1267
15.54 1232
15.6 1254
15.66 1381
15.72 1289
15.78 1298
15.84 1348
15.9 1324
15.96 1353
16.02 1407
16.08 1368
16.14 1499
16.2 1497
16.26 1470
16.32 1480
16.38 1378
16.44 1477
16.5 1431
16.56 1482
16.62 1468
16.68 1496
16.74 1427
16.8 1547
16.86 1747
16.92 2078
16.98 2917
17.04 2675
17.1 1725
17.16 1633
17.22 1596
17.28 1752
17.34 1652
17.4 1629
17.46 1610
17.52 1697
17.58 1646
17.64 1666
17.7 1670
17.76 1713
17.82 1700
17.88 1796
17.94 1749
18 1676
18.06 1754
18.12 1695
18.18 1750
18.24 1726
18.3 1719
18.36 1828
18.42 1817
18.48 1760
18.54 1759
18.6 1868
18.66 1902
18.72 1877
18.78 1989
18.84 1895
18.9 2049
18.96 2057
19.02 2130
19.08 2241
19.14 2098
19.2 2079
19.26 2028
19.32 2068
19.38 2115
19.44 2165
19.5 2247
19.56 2354
19.62 2140
19.68 2049
19.74 2171
19.8 2138
19.86 2153
19.92 2161
19.98 2152
20 2099