File: xrd-UiO-67/pxrddata/6-17.ASC
3 2170
3.06 1766
3.12 1602
3.18 1447
3.24 1467
3.3 1430
3.36 1429
3.42 1427
3.48 1361
3.54 1365
3.6 1261
3.66 1315
3.72 1197
3.78 1205
3.84 1154
3.9 1165
3.96 1183
4.02 1146
4.08 1112
4.14 1133
4.2 1056
4.26 1036
4.32 1084
4.38 1036
4.44 1089
4.5 1017
4.56 1052
4.62 992
4.68 1014
4.74 999
4.8 951
4.86 965
4.92 1013
4.98 956
5.04 965
5.1 957
5.16 956
5.22 945
5.28 991
5.34 997
5.4 988
5.46 960
5.52 949
5.58 960
5.64 966
5.7 1015
5.76 898
5.82 1005
5.88 983
5.94 995
6 984
6.06 965
6.12 1013
6.18 965
6.24 972
6.3 982
6.36 998
6.42 984
6.48 963
6.54 992
6.6 976
6.66 1014
6.72 1001
6.78 1029
6.84 986
6.9 1078
6.96 1044
7.02 985
7.08 1029
7.14 1031
7.2 1021
7.26 1072
7.32 1016
7.38 1068
7.44 1025
7.5 1080
7.56 1008
7.62 1013
7.68 1051
7.74 1110
7.8 1061
7.86 1058
7.92 998
7.98 1032
8.04 979
8.1 1069
8.16 1051
8.22 1065
8.28 1038
8.34 1054
8.4 1025
8.46 1031
8.52 1084
8.58 1027
8.64 1096
8.7 1056
8.76 1057
8.82 1053
8.88 1109
8.94 1096
9 1018
9.06 1096
9.12 1100
9.18 1058
9.24 1103
9.3 1107
9.36 1110
9.42 1080
9.48 1068
9.54 1077
9.6 1145
9.66 1140
9.72 1069
9.78 1100
9.84 1044
9.9 1137
9.96 1122
10.02 1115
10.08 1115
10.14 1138
10.2 1121
10.26 1078
10.32 1107
10.38 1111
10.44 1119
10.5 1145
10.56 1136
10.62 1136
10.68 1107
10.74 1126
10.8 1117
10.86 1111
10.92 1142
10.98 1102
11.04 1106
11.1 1157
11.16 1130
11.22 1051
11.28 1093
11.34 1101
11.4 1102
11.46 1114
11.52 1160
11.58 1157
11.64 1099
11.7 1151
11.76 1137
11.82 1155
11.88 1176
11.94 1153
12 1174
12.06 1109
12.12 1136
12.18 1161
12.24 1182
12.3 1192
12.36 1163
12.42 1196
12.48 1137
12.54 1113
12.6 1173
12.66 1204
12.72 1165
12.78 1207
12.84 1207
12.9 1231
12.96 1197
13.02 1208
13.08 1160
13.14 1180
13.2 1221
13.26 1252
13.32 1271
13.38 1256
13.44 1202
13.5 1222
13.56 1247
13.62 1168
13.68 1248
13.74 1219
13.8 1230
13.86 1216
13.92 1256
13.98 1282
14.04 1285
14.1 1294
14.16 1301
14.22 1293
14.28 1295
14.34 1256
14.4 1284
14.46 1331
14.52 1314
14.58 1358
14.64 1353
14.7 1361
14.76 1375
14.82 1329
14.88 1337
14.94 1325
15 1288
15.06 1355
15.12 1399
15.18 1373
15.24 1396
15.3 1380
15.36 1448
15.42 1377
15.48 1461
15.54 1404
15.6 1472
15.66 1477
15.72 1463
15.78 1464
15.84 1545
15.9 1487
15.96 1503
16.02 1509
16.08 1545
16.14 1468
16.2 1533
16.26 1635
16.32 1760
16.38 1663
16.44 1607
16.5 1618
16.56 1696
16.62 1768
16.68 1740
16.74 1922
16.8 2071
16.86 2442
16.92 3279
16.98 3799
17.04 3885
17.1 2533
17.16 1874
17.22 1843
17.28 1831
17.34 1861
17.4 1852
17.46 1893
17.52 1924
17.58 1919
17.64 1893
17.7 1912
17.76 2006
17.82 1953
17.88 1909
17.94 1987
18 2059
18.06 2019
18.12 2050
18.18 2001
18.24 2134
18.3 2160
18.36 2068
18.42 2093
18.48 2160
18.54 2166
18.6 2151
18.66 2208
18.72 2180
18.78 2288
18.84 2154
18.9 2298
18.96 2354
19.02 2233
19.08 2371
19.14 2272
19.2 2263
19.26 2386
19.32 2463
19.38 2320
19.44 2386
19.5 2365
19.56 2397
19.62 2451
19.68 2440
19.74 2429
19.8 2469
19.86 2487
19.92 2488
19.98 2495
20 2446