File: xrd-UiO-67/pxrddata/6-2.ASC
3 1653
3.06 1307
3.12 1093
3.18 1109
3.24 985
3.3 1033
3.36 959
3.42 954
3.48 905
3.54 902
3.6 834
3.66 863
3.72 828
3.78 806
3.84 772
3.9 767
3.96 765
4.02 723
4.08 719
4.14 658
4.2 722
4.26 684
4.32 700
4.38 635
4.44 647
4.5 599
4.56 582
4.62 626
4.68 588
4.74 625
4.8 581
4.86 589
4.92 598
4.98 568
5.04 549
5.1 590
5.16 599
5.22 563
5.28 563
5.34 606
5.4 637
5.46 607
5.52 663
5.58 736
5.64 740
5.7 829
5.76 979
5.82 1156
5.88 1351
5.94 1661
6 1948
6.06 1088
6.12 649
6.18 673
6.24 585
6.3 583
6.36 597
6.42 589
6.48 615
6.54 661
6.6 734
6.66 798
6.72 889
6.78 1032
6.84 1248
6.9 1307
6.96 669
7.02 569
7.08 545
7.14 528
7.2 548
7.26 533
7.32 559
7.38 579
7.44 536
7.5 571
7.56 572
7.62 635
7.68 619
7.74 553
7.8 540
7.86 567
7.92 507
7.98 536
8.04 578
8.1 531
8.16 474
8.22 539
8.28 556
8.34 533
8.4 524
8.46 560
8.52 525
8.58 512
8.64 520
8.7 578
8.76 598
8.82 537
8.88 575
8.94 616
9 512
9.06 561
9.12 538
9.18 495
9.24 610
9.3 589
9.36 621
9.42 702
9.48 741
9.54 927
9.6 1051
9.66 926
9.72 578
9.78 515
9.84 548
9.9 533
9.96 527
10.02 515
10.08 515
10.14 555
10.2 525
10.26 530
10.32 529
10.38 499
10.44 520
10.5 511
10.56 530
10.62 565
10.68 476
10.74 567
10.8 520
10.86 547
10.92 597
10.98 605
11.04 708
11.1 766
11.16 903
11.22 1136
11.28 758
11.34 545
11.4 556
11.46 563
11.52 611
11.58 634
11.64 734
11.7 790
11.76 688
11.82 523
11.88 532
11.94 561
12 537
12.06 566
12.12 566
12.18 569
12.24 535
12.3 556
12.36 570
12.42 550
12.48 533
12.54 594
12.6 540
12.66 506
12.72 579
12.78 544
12.84 528
12.9 563
12.96 543
13.02 588
13.08 573
13.14 542
13.2 579
13.26 600
13.32 588
13.38 622
13.44 621
13.5 649
13.56 600
13.62 601
13.68 574
13.74 596
13.8 576
13.86 639
13.92 591
13.98 550
14.04 557
14.1 608
14.16 620
14.22 597
14.28 574
14.34 605
14.4 641
14.46 638
14.52 608
14.58 655
14.64 721
14.7 692
14.76 606
14.82 670
14.88 661
14.94 654
15 697
15.06 687
15.12 681
15.18 640
15.24 625
15.3 695
15.36 652
15.42 702
15.48 664
15.54 667
15.6 681
15.66 652
15.72 676
15.78 697
15.84 722
15.9 763
15.96 728
16.02 679
16.08 699
16.14 704
16.2 721
16.26 759
16.32 698
16.38 764
16.44 759
16.5 770
16.56 763
16.62 772
16.68 798
16.74 807
16.8 854
16.86 831
16.92 832
16.98 864
17.04 866
17.1 846
17.16 913
17.22 827
17.28 868
17.34 968
17.4 961
17.46 969
17.52 925
17.58 876
17.64 920
17.7 919
17.76 930
17.82 986
17.88 987
17.94 995
18 975
18.06 1000
18.12 1004
18.18 973
18.24 1018
18.3 1026
18.36 1079
18.42 994
18.48 1102
18.54 1049
18.6 1074
18.66 1080
18.72 1115
18.78 1130
18.84 1182
18.9 1137
18.96 1074
19.02 1127
19.08 1183
19.14 1153
19.2 1184
19.26 1224
19.32 1198
19.38 1270
19.44 1202
19.5 1219
19.56 1257
19.62 1285
19.68 1379
19.74 1420
19.8 1507
19.86 1677
19.92 1479
19.98 1473
20 1560