File: xrd-UiO-67/pxrddata/6-20.ASC
3 2007
3.06 1618
3.12 1444
3.18 1389
3.24 1352
3.3 1319
3.36 1261
3.42 1249
3.48 1229
3.54 1164
3.6 1140
3.66 1080
3.72 1098
3.78 1068
3.84 1047
3.9 1029
3.96 982
4.02 945
4.08 985
4.14 956
4.2 890
4.26 923
4.32 891
4.38 846
4.44 846
4.5 852
4.56 823
4.62 861
4.68 848
4.74 809
4.8 798
4.86 809
4.92 791
4.98 776
5.04 809
5.1 831
5.16 800
5.22 775
5.28 761
5.34 768
5.4 782
5.46 798
5.52 803
5.58 779
5.64 739
5.7 805
5.76 712
5.82 733
5.88 813
5.94 786
6 748
6.06 820
6.12 774
6.18 815
6.24 751
6.3 809
6.36 760
6.42 840
6.48 824
6.54 802
6.6 811
6.66 853
6.72 758
6.78 764
6.84 813
6.9 849
6.96 808
7.02 839
7.08 772
7.14 794
7.2 789
7.26 802
7.32 837
7.38 838
7.44 860
7.5 831
7.56 814
7.62 793
7.68 803
7.74 814
7.8 827
7.86 812
7.92 810
7.98 807
8.04 876
8.1 873
8.16 865
8.22 839
8.28 819
8.34 875
8.4 906
8.46 823
8.52 837
8.58 808
8.64 833
8.7 813
8.76 826
8.82 851
8.88 863
8.94 885
9 889
9.06 886
9.12 852
9.18 845
9.24 825
9.3 842
9.36 822
9.42 874
9.48 824
9.54 801
9.6 838
9.66 820
9.72 791
9.78 835
9.84 867
9.9 871
9.96 853
10.02 879
10.08 878
10.14 913
10.2 854
10.26 807
10.32 858
10.38 826
10.44 863
10.5 903
10.56 892
10.62 881
10.68 867
10.74 852
10.8 891
10.86 858
10.92 839
10.98 824
11.04 927
11.1 879
11.16 880
11.22 861
11.28 888
11.34 867
11.4 871
11.46 827
11.52 847
11.58 886
11.64 950
11.7 893
11.76 914
11.82 845
11.88 910
11.94 879
12 893
12.06 929
12.12 890
12.18 921
12.24 914
12.3 953
12.36 894
12.42 942
12.48 916
12.54 959
12.6 902
12.66 936
12.72 876
12.78 957
12.84 953
12.9 970
12.96 914
13.02 884
13.08 922
13.14 1006
13.2 973
13.26 950
13.32 1071
13.38 970
13.44 998
13.5 986
13.56 958
13.62 1021
13.68 949
13.74 935
13.8 1033
13.86 1052
13.92 1049
13.98 1028
14.04 1007
14.1 998
14.16 1017
14.22 1026
14.28 1032
14.34 1098
14.4 1035
14.46 1086
14.52 1055
14.58 1077
14.64 1070
14.7 1044
14.76 1180
14.82 1074
14.88 1066
14.94 1165
15 1081
15.06 1176
15.12 1134
15.18 1139
15.24 1162
15.3 1207
15.36 1221
15.42 1224
15.48 1216
15.54 1213
15.6 1187
15.66 1217
15.72 1237
15.78 1221
15.84 1210
15.9 1198
15.96 1251
16.02 1274
16.08 1257
16.14 1214
16.2 1299
16.26 1299
16.32 1304
16.38 1410
16.44 1398
16.5 1363
16.56 1393
16.62 1432
16.68 1455
16.74 1507
16.8 1583
16.86 1703
16.92 1945
16.98 2495
17.04 3514
17.1 3930
17.16 2464
17.22 1687
17.28 1633
17.34 1623
17.4 1712
17.46 1683
17.52 1648
17.58 1651
17.64 1649
17.7 1635
17.76 1653
17.82 1686
17.88 1684
17.94 1770
18 1708
18.06 1771
18.12 1793
18.18 1775
18.24 1894
18.3 1812
18.36 1853
18.42 1929
18.48 1906
18.54 1946
18.6 2038
18.66 2114
18.72 2062
18.78 2018
18.84 2041
18.9 2022
18.96 2103
19.02 2120
19.08 2167
19.14 2174
19.2 2168
19.26 2155
19.32 2258
19.38 2224
19.44 2245
19.5 2276
19.56 2353
19.62 2390
19.68 2378
19.74 2396
19.8 2447
19.86 2366
19.92 2402
19.98 2474
20 2445