File: xrd-UiO-67/pxrddata/6-3.ASC
3 2236
3.06 1842
3.12 1640
3.18 1551
3.24 1523
3.3 1551
3.36 1467
3.42 1411
3.48 1371
3.54 1321
3.6 1343
3.66 1242
3.72 1186
3.78 1164
3.84 1150
3.9 1150
3.96 1118
4.02 1116
4.08 1074
4.14 1073
4.2 1073
4.26 1024
4.32 990
4.38 1019
4.44 958
4.5 986
4.56 931
4.62 926
4.68 935
4.74 1018
4.8 898
4.86 987
4.92 1010
4.98 1030
5.04 1093
5.1 1122
5.16 1165
5.22 1264
5.28 1282
5.34 1464
5.4 1598
5.46 1851
5.52 2104
5.58 2615
5.64 3343
5.7 4614
5.76 8124
5.82 3532
5.88 1216
5.94 1189
6 1114
6.06 1103
6.12 1066
6.18 1170
6.24 1201
6.3 1289
6.36 1483
6.42 1692
6.48 1997
6.54 2361
6.6 3411
6.66 5212
6.72 1519
6.78 1036
6.84 1001
6.9 1022
6.96 959
7.02 1043
7.08 1038
7.14 1071
7.2 1146
7.26 1243
7.32 1426
7.38 1800
7.44 2702
7.5 1277
7.56 970
7.62 894
7.68 909
7.74 903
7.8 898
7.86 908
7.92 958
7.98 891
8.04 928
8.1 876
8.16 920
8.22 962
8.28 911
8.34 1012
8.4 1050
8.46 1141
8.52 1326
8.58 1593
8.64 1078
8.7 860
8.76 868
8.82 921
8.88 965
8.94 942
9 1045
9.06 1128
9.12 1223
9.18 1363
9.24 1673
9.3 2117
9.36 3722
9.42 2317
9.48 979
9.54 899
9.6 937
9.66 982
9.72 891
9.78 844
9.84 917
9.9 962
9.96 895
10.02 889
10.08 891
10.14 897
10.2 904
10.26 885
10.32 933
10.38 929
10.44 920
10.5 928
10.56 971
10.62 992
10.68 1026
10.74 1113
10.8 1311
10.86 1591
10.92 2166
10.98 3606
11.04 2013
11.1 1039
11.16 1005
11.22 1046
11.28 1116
11.34 1208
11.4 1461
11.46 2207
11.52 1580
11.58 983
11.64 938
11.7 973
11.76 971
11.82 949
11.88 967
11.94 1021
12 1027
12.06 1160
12.12 1191
12.18 1017
12.24 924
12.3 977
12.36 1004
12.42 979
12.48 907
12.54 978
12.6 964
12.66 939
12.72 1006
12.78 935
12.84 961
12.9 975
12.96 945
13.02 994
13.08 1076
13.14 1134
13.2 1289
13.26 1403
13.32 1064
13.38 976
13.44 1032
13.5 1004
13.56 995
13.62 1019
13.68 1022
13.74 1028
13.8 1006
13.86 1014
13.92 1075
13.98 1086
14.04 1068
14.1 1088
14.16 1158
14.22 1232
14.28 1174
14.34 1145
14.4 1411
14.46 1480
14.52 1144
14.58 1139
14.64 1135
14.7 1220
14.76 1150
14.82 1269
14.88 1182
14.94 1166
15 1183
15.06 1222
15.12 1178
15.18 1161
15.24 1192
15.3 1197
15.36 1246
15.42 1209
15.48 1244
15.54 1196
15.6 1260
15.66 1246
15.72 1249
15.78 1294
15.84 1296
15.9 1275
15.96 1254
16.02 1350
16.08 1338
16.14 1346
16.2 1349
16.26 1436
16.32 1446
16.38 1410
16.44 1473
16.5 1475
16.56 1456
16.62 1452
16.68 1499
16.74 1492
16.8 1499
16.86 1523
16.92 1580
16.98 1553
17.04 1665
17.1 1757
17.16 1811
17.22 2084
17.28 1677
17.34 1683
17.4 1658
17.46 1619
17.52 1712
17.58 1672
17.64 1724
17.7 1726
17.76 1706
17.82 1742
17.88 1676
17.94 1782
18 1766
18.06 1744
18.12 1784
18.18 1820
18.24 1842
18.3 1841
18.36 1866
18.42 1811
18.48 1898
18.54 1923
18.6 1874
18.66 1952
18.72 1939
18.78 1971
18.84 2020
18.9 1975
18.96 2105
19.02 2010
19.08 2097
19.14 2113
19.2 2011
19.26 2150
19.32 2002
19.38 2147
19.44 2235
19.5 2318
19.56 2735
19.62 3308
19.68 2607
19.74 2440
19.8 2538
19.86 3415
19.92 3633
19.98 2533
20 2455