File: xrd-UiO-67/pxrddata/6-5.ASC
3 2473
3.06 2104
3.12 1728
3.18 1707
3.24 1702
3.3 1648
3.36 1562
3.42 1474
3.48 1462
3.54 1423
3.6 1404
3.66 1448
3.72 1304
3.78 1318
3.84 1259
3.9 1257
3.96 1247
4.02 1237
4.08 1225
4.14 1121
4.2 1217
4.26 1125
4.32 1171
4.38 1098
4.44 1131
4.5 1156
4.56 1064
4.62 1054
4.68 1113
4.74 1025
4.8 1056
4.86 988
4.92 1018
4.98 1028
5.04 1035
5.1 1018
5.16 1038
5.22 1036
5.28 1018
5.34 1037
5.4 1030
5.46 1001
5.52 1023
5.58 972
5.64 989
5.7 1081
5.76 1108
5.82 1013
5.88 1077
5.94 1012
6 1016
6.06 1087
6.12 1048
6.18 1009
6.24 1090
6.3 997
6.36 989
6.42 1062
6.48 1025
6.54 1024
6.6 1015
6.66 971
6.72 1069
6.78 1051
6.84 981
6.9 1031
6.96 1031
7.02 1008
7.08 1027
7.14 1002
7.2 998
7.26 1069
7.32 1013
7.38 1034
7.44 1028
7.5 984
7.56 1038
7.62 1037
7.68 1016
7.74 1042
7.8 1048
7.86 1029
7.92 994
7.98 979
8.04 988
8.1 1023
8.16 1013
8.22 1026
8.28 988
8.34 974
8.4 995
8.46 982
8.52 923
8.58 1009
8.64 1011
8.7 943
8.76 1040
8.82 993
8.88 1024
8.94 983
9 960
9.06 945
9.12 986
9.18 994
9.24 1054
9.3 954
9.36 1040
9.42 997
9.48 947
9.54 975
9.6 980
9.66 982
9.72 935
9.78 1055
9.84 985
9.9 955
9.96 985
10.02 1024
10.08 948
10.14 968
10.2 975
10.26 904
10.32 924
10.38 961
10.44 962
10.5 949
10.56 904
10.62 951
10.68 977
10.74 959
10.8 911
10.86 932
10.92 981
10.98 957
11.04 1027
11.1 987
11.16 911
11.22 996
11.28 959
11.34 954
11.4 966
11.46 965
11.52 987
11.58 1032
11.64 958
11.7 955
11.76 1023
11.82 1007
11.88 996
11.94 1016
12 982
12.06 997
12.12 1013
12.18 946
12.24 932
12.3 983
12.36 979
12.42 965
12.48 1001
12.54 1006
12.6 986
12.66 1011
12.72 958
12.78 1013
12.84 961
12.9 1006
12.96 1011
13.02 1029
13.08 1054
13.14 1055
13.2 1052
13.26 1047
13.32 1063
13.38 1034
13.44 1144
13.5 1070
13.56 1042
13.62 1071
13.68 1128
13.74 1060
13.8 1084
13.86 1061
13.92 1111
13.98 1099
14.04 1115
14.1 1108
14.16 1139
14.22 1092
14.28 1110
14.34 1099
14.4 1193
14.46 1069
14.52 1124
14.58 1151
14.64 1144
14.7 1220
14.76 1208
14.82 1209
14.88 1183
14.94 1218
15 1236
15.06 1194
15.12 1256
15.18 1260
15.24 1201
15.3 1311
15.36 1275
15.42 1187
15.48 1182
15.54 1215
15.6 1294
15.66 1336
15.72 1294
15.78 1295
15.84 1268
15.9 1342
15.96 1386
16.02 1369
16.08 1360
16.14 1393
16.2 1435
16.26 1373
16.32 1321
16.38 1471
16.44 1433
16.5 1449
16.56 1495
16.62 1530
16.68 1543
16.74 1645
16.8 1836
16.86 2127
16.92 2929
16.98 4151
17.04 3486
17.1 1981
17.16 1681
17.22 1620
17.28 1558
17.34 1595
17.4 1644
17.46 1600
17.52 1671
17.58 1685
17.64 1721
17.7 1724
17.76 1708
17.82 1733
17.88 1735
17.94 1743
18 1753
18.06 1706
18.12 1868
18.18 1773
18.24 1809
18.3 1850
18.36 1812
18.42 1840
18.48 1862
18.54 1919
18.6 1954
18.66 1944
18.72 1929
18.78 1931
18.84 1996
18.9 1944
18.96 1967
19.02 2047
19.08 1959
19.14 2043
19.2 2079
19.26 2096
19.32 2044
19.38 2064
19.44 2115
19.5 1960
19.56 2133
19.62 2098
19.68 2079
19.74 2208
19.8 2122
19.86 2286
19.92 2257
19.98 2193
20 2179