File: xrd-UiO-67/pxrddata/7-1.ASC
3 1954
3.06 1486
3.12 1286
3.18 1254
3.24 1153
3.3 1171
3.36 1141
3.42 1132
3.48 1118
3.54 1037
3.6 1037
3.66 1032
3.72 1055
3.78 1013
3.84 969
3.9 1051
3.96 1034
4.02 999
4.08 999
4.14 967
4.2 947
4.26 981
4.32 959
4.38 957
4.44 923
4.5 972
4.56 946
4.62 912
4.68 996
4.74 945
4.8 964
4.86 942
4.92 1019
4.98 973
5.04 986
5.1 1040
5.16 1022
5.22 1035
5.28 1096
5.34 1086
5.4 1078
5.46 1114
5.52 1123
5.58 1167
5.64 1195
5.7 1230
5.76 1179
5.82 1130
5.88 1182
5.94 1155
6 1056
6.06 1090
6.12 1012
6.18 986
6.24 993
6.3 938
6.36 955
6.42 893
6.48 904
6.54 861
6.6 853
6.66 824
6.72 916
6.78 799
6.84 779
6.9 800
6.96 790
7.02 775
7.08 800
7.14 750
7.2 759
7.26 751
7.32 776
7.38 701
7.44 706
7.5 821
7.56 712
7.62 723
7.68 773
7.74 741
7.8 713
7.86 726
7.92 715
7.98 721
8.04 786
8.1 740
8.16 745
8.22 761
8.28 703
8.34 732
8.4 733
8.46 746
8.52 744
8.58 776
8.64 716
8.7 707
8.76 724
8.82 752
8.88 737
8.94 745
9 777
9.06 764
9.12 761
9.18 745
9.24 736
9.3 726
9.36 801
9.42 851
9.48 826
9.54 798
9.6 828
9.66 783
9.72 812
9.78 805
9.84 756
9.9 739
9.96 770
10.02 772
10.08 751
10.14 798
10.2 786
10.26 763
10.32 726
10.38 735
10.44 794
10.5 814
10.56 772
10.62 799
10.68 851
10.74 797
10.8 775
10.86 779
10.92 859
10.98 823
11.04 826
11.1 839
11.16 834
11.22 835
11.28 839
11.34 793
11.4 799
11.46 837
11.52 794
11.58 789
11.64 736
11.7 762
11.76 788
11.82 745
11.88 788
11.94 808
12 744
12.06 768
12.12 794
12.18 773
12.24 751
12.3 769
12.36 792
12.42 768
12.48 838
12.54 794
12.6 784
12.66 813
12.72 798
12.78 755
12.84 814
12.9 829
12.96 825
13.02 795
13.08 800
13.14 842
13.2 803
13.26 827
13.32 828
13.38 798
13.44 838
13.5 802
13.56 883
13.62 883
13.68 871
13.74 921
13.8 835
13.86 845
13.92 888
13.98 868
14.04 864
14.1 860
14.16 942
14.22 933
14.28 877
14.34 979
14.4 901
14.46 974
14.52 977
14.58 961
14.64 950
14.7 927
14.76 930
14.82 1055
14.88 976
14.94 1021
15 1002
15.06 1002
15.12 1047
15.18 1084
15.24 1052
15.3 1061
15.36 1093
15.42 1127
15.48 1052
15.54 1071
15.6 1097
15.66 1053
15.72 1119
15.78 1099
15.84 1166
15.9 1133
15.96 1096
16.02 1164
16.08 1178
16.14 1198
16.2 1232
16.26 1222
16.32 1240
16.38 1217
16.44 1252
16.5 1235
16.56 1239
16.62 1242
16.68 1258
16.74 1304
16.8 1349
16.86 1437
16.92 1382
16.98 1559
17.04 1549
17.1 1607
17.16 1562
17.22 1581
17.28 1447
17.34 1509
17.4 1466
17.46 1457
17.52 1425
17.58 1438
17.64 1556
17.7 1541
17.76 1551
17.82 1559
17.88 1562
17.94 1590
18 1609
18.06 1599
18.12 1689
18.18 1686
18.24 1677
18.3 1687
18.36 1696
18.42 1749
18.48 1720
18.54 1675
18.6 1761
18.66 1755
18.72 1771
18.78 1781
18.84 1815
18.9 1839
18.96 1877
19.02 1856
19.08 1854
19.14 1810
19.2 1878
19.26 1893
19.32 1908
19.38 1959
19.44 1925
19.5 1988
19.56 1976
19.62 2012
19.68 1969
19.74 2076
19.8 2086
19.86 2002
19.92 2019
19.98 1973
20 2033