File: xrd-UiO-67/pxrddata/7-10.ASC
3 2231
3.06 1856
3.12 1668
3.18 1590
3.24 1614
3.3 1579
3.36 1429
3.42 1436
3.48 1415
3.54 1365
3.6 1387
3.66 1314
3.72 1376
3.78 1264
3.84 1279
3.9 1255
3.96 1274
4.02 1194
4.08 1242
4.14 1242
4.2 1238
4.26 1232
4.32 1238
4.38 1268
4.44 1190
4.5 1244
4.56 1157
4.62 1154
4.68 1150
4.74 1135
4.8 1186
4.86 1161
4.92 1141
4.98 1159
5.04 1196
5.1 1140
5.16 1104
5.22 1131
5.28 1104
5.34 1145
5.4 1119
5.46 1065
5.52 1066
5.58 1032
5.64 1038
5.7 1005
5.76 908
5.82 926
5.88 962
5.94 916
6 824
6.06 831
6.12 843
6.18 769
6.24 811
6.3 747
6.36 780
6.42 804
6.48 716
6.54 756
6.6 735
6.66 713
6.72 707
6.78 722
6.84 675
6.9 647
6.96 657
7.02 666
7.08 630
7.14 667
7.2 656
7.26 611
7.32 629
7.38 634
7.44 584
7.5 593
7.56 615
7.62 623
7.68 635
7.74 603
7.8 617
7.86 610
7.92 568
7.98 582
8.04 610
8.1 587
8.16 568
8.22 583
8.28 598
8.34 617
8.4 592
8.46 580
8.52 611
8.58 581
8.64 553
8.7 567
8.76 587
8.82 543
8.88 578
8.94 594
9 543
9.06 594
9.12 558
9.18 566
9.24 584
9.3 568
9.36 559
9.42 560
9.48 562
9.54 613
9.6 576
9.66 531
9.72 552
9.78 532
9.84 559
9.9 561
9.96 605
10.02 589
10.08 570
10.14 538
10.2 579
10.26 537
10.32 536
10.38 550
10.44 551
10.5 574
10.56 498
10.62 561
10.68 543
10.74 533
10.8 555
10.86 538
10.92 570
10.98 576
11.04 578
11.1 539
11.16 568
11.22 543
11.28 499
11.34 547
11.4 544
11.46 533
11.52 478
11.58 498
11.64 508
11.7 531
11.76 520
11.82 539
11.88 512
11.94 520
12 538
12.06 536
12.12 556
12.18 542
12.24 547
12.3 533
12.36 524
12.42 538
12.48 563
12.54 562
12.6 481
12.66 531
12.72 569
12.78 491
12.84 527
12.9 570
12.96 551
13.02 526
13.08 530
13.14 536
13.2 554
13.26 539
13.32 537
13.38 559
13.44 566
13.5 562
13.56 557
13.62 561
13.68 510
13.74 565
13.8 586
13.86 567
13.92 584
13.98 576
14.04 567
14.1 591
14.16 589
14.22 591
14.28 609
14.34 572
14.4 630
14.46 591
14.52 610
14.58 615
14.64 586
14.7 668
14.76 620
14.82 592
14.88 656
14.94 619
15 654
15.06 671
15.12 651
15.18 643
15.24 642
15.3 684
15.36 624
15.42 655
15.48 673
15.54 654
15.6 705
15.66 656
15.72 646
15.78 707
15.84 663
15.9 664
15.96 733
16.02 697
16.08 773
16.14 723
16.2 730
16.26 728
16.32 732
16.38 771
16.44 819
16.5 751
16.56 795
16.62 740
16.68 764
16.74 790
16.8 751
16.86 804
16.92 776
16.98 793
17.04 838
17.1 843
17.16 816
17.22 813
17.28 780
17.34 833
17.4 832
17.46 869
17.52 884
17.58 858
17.64 854
17.7 878
17.76 860
17.82 926
17.88 948
17.94 877
18 885
18.06 917
18.12 875
18.18 943
18.24 952
18.3 975
18.36 913
18.42 1019
18.48 930
18.54 927
18.6 981
18.66 955
18.72 974
18.78 989
18.84 962
18.9 995
18.96 1016
19.02 994
19.08 981
19.14 987
19.2 1006
19.26 1038
19.32 1074
19.38 1009
19.44 1086
19.5 998
19.56 1041
19.62 1070
19.68 1025
19.74 1044
19.8 1060
19.86 1027
19.92 1052
19.98 1057
20 1092