File: xrd-UiO-67/pxrddata/7-12.ASC
3 2139
3.06 1654
3.12 1587
3.18 1473
3.24 1464
3.3 1323
3.36 1278
3.42 1230
3.48 1201
3.54 1199
3.6 1227
3.66 1082
3.72 1122
3.78 1091
3.84 1029
3.9 1035
3.96 1021
4.02 1002
4.08 889
4.14 933
4.2 955
4.26 867
4.32 825
4.38 800
4.44 847
4.5 879
4.56 821
4.62 782
4.68 739
4.74 766
4.8 748
4.86 774
4.92 723
4.98 703
5.04 695
5.1 659
5.16 703
5.22 652
5.28 667
5.34 669
5.4 653
5.46 649
5.52 676
5.58 625
5.64 645
5.7 666
5.76 678
5.82 631
5.88 636
5.94 610
6 622
6.06 613
6.12 634
6.18 661
6.24 622
6.3 659
6.36 672
6.42 679
6.48 617
6.54 641
6.6 648
6.66 680
6.72 646
6.78 659
6.84 662
6.9 614
6.96 656
7.02 653
7.08 644
7.14 637
7.2 654
7.26 648
7.32 623
7.38 629
7.44 613
7.5 647
7.56 592
7.62 637
7.68 603
7.74 647
7.8 618
7.86 631
7.92 632
7.98 641
8.04 578
8.1 593
8.16 622
8.22 617
8.28 639
8.34 590
8.4 651
8.46 575
8.52 639
8.58 637
8.64 666
8.7 695
8.76 703
8.82 809
8.88 870
8.94 1085
9 1442
9.06 1465
9.12 1011
9.18 807
9.24 731
9.3 737
9.36 629
9.42 650
9.48 644
9.54 644
9.6 620
9.66 656
9.72 687
9.78 685
9.84 765
9.9 752
9.96 755
10.02 726
10.08 678
10.14 639
10.2 645
10.26 627
10.32 616
10.38 611
10.44 659
10.5 619
10.56 671
10.62 633
10.68 577
10.74 657
10.8 660
10.86 605
10.92 593
10.98 592
11.04 601
11.1 592
11.16 585
11.22 603
11.28 589
11.34 563
11.4 613
11.46 550
11.52 589
11.58 578
11.64 530
11.7 544
11.76 612
11.82 592
11.88 621
11.94 579
12 606
12.06 568
12.12 573
12.18 557
12.24 605
12.3 558
12.36 563
12.42 609
12.48 647
12.54 595
12.6 643
12.66 636
12.72 639
12.78 596
12.84 636
12.9 607
12.96 608
13.02 638
13.08 569
13.14 608
13.2 628
13.26 616
13.32 656
13.38 601
13.44 601
13.5 652
13.56 585
13.62 604
13.68 624
13.74 586
13.8 626
13.86 635
13.92 637
13.98 641
14.04 644
14.1 641
14.16 653
14.22 598
14.28 649
14.34 651
14.4 627
14.46 646
14.52 640
14.58 662
14.64 700
14.7 692
14.76 642
14.82 629
14.88 686
14.94 631
15 687
15.06 669
15.12 693
15.18 687
15.24 686
15.3 698
15.36 688
15.42 725
15.48 723
15.54 693
15.6 690
15.66 676
15.72 703
15.78 688
15.84 786
15.9 708
15.96 753
16.02 677
16.08 763
16.14 705
16.2 747
16.26 755
16.32 807
16.38 746
16.44 791
16.5 769
16.56 807
16.62 798
16.68 814
16.74 870
16.8 909
16.86 1023
16.92 1221
16.98 1300
17.04 1179
17.1 1045
17.16 946
17.22 904
17.28 882
17.34 898
17.4 870
17.46 885
17.52 861
17.58 889
17.64 936
17.7 956
17.76 930
17.82 906
17.88 959
17.94 977
18 944
18.06 942
18.12 999
18.18 955
18.24 1016
18.3 1005
18.36 988
18.42 984
18.48 1045
18.54 1019
18.6 1008
18.66 1032
18.72 1033
18.78 1060
18.84 1062
18.9 1077
18.96 1029
19.02 1085
19.08 1159
19.14 988
19.2 1099
19.26 1106
19.32 1070
19.38 1079
19.44 1184
19.5 1160
19.56 1155
19.62 1173
19.68 1189
19.74 1175
19.8 1184
19.86 1213
19.92 1156
19.98 1214
20 1204