File: xrd-UiO-67/pxrddata/7-14.ASC
3 2112
3.06 1686
3.12 1546
3.18 1491
3.24 1406
3.3 1389
3.36 1361
3.42 1281
3.48 1266
3.54 1260
3.6 1233
3.66 1275
3.72 1192
3.78 1177
3.84 1150
3.9 1113
3.96 1142
4.02 1136
4.08 1118
4.14 1085
4.2 1113
4.26 1075
4.32 1091
4.38 1077
4.44 1075
4.5 1103
4.56 1076
4.62 1116
4.68 1078
4.74 1041
4.8 1125
4.86 1105
4.92 1091
4.98 1156
5.04 1194
5.1 1171
5.16 1175
5.22 1178
5.28 1234
5.34 1213
5.4 1178
5.46 1194
5.52 1219
5.58 1164
5.64 1139
5.7 1195
5.76 1115
5.82 1120
5.88 1105
5.94 1098
6 1039
6.06 972
6.12 973
6.18 925
6.24 989
6.3 946
6.36 910
6.42 876
6.48 859
6.54 855
6.6 820
6.66 814
6.72 756
6.78 775
6.84 764
6.9 735
6.96 708
7.02 705
7.08 691
7.14 705
7.2 743
7.26 703
7.32 721
7.38 706
7.44 760
7.5 694
7.56 693
7.62 676
7.68 685
7.74 723
7.8 670
7.86 669
7.92 645
7.98 636
8.04 683
8.1 622
8.16 684
8.22 631
8.28 607
8.34 678
8.4 660
8.46 621
8.52 625
8.58 673
8.64 646
8.7 671
8.76 677
8.82 676
8.88 686
8.94 769
9 807
9.06 913
9.12 747
9.18 756
9.24 726
9.3 698
9.36 701
9.42 715
9.48 624
9.54 699
9.6 669
9.66 651
9.72 631
9.78 656
9.84 685
9.9 662
9.96 681
10.02 652
10.08 678
10.14 678
10.2 646
10.26 663
10.32 637
10.38 677
10.44 670
10.5 625
10.56 653
10.62 676
10.68 707
10.74 658
10.8 654
10.86 673
10.92 612
10.98 652
11.04 678
11.1 652
11.16 663
11.22 637
11.28 642
11.34 651
11.4 620
11.46 613
11.52 687
11.58 606
11.64 651
11.7 642
11.76 633
11.82 624
11.88 661
11.94 627
12 610
12.06 596
12.12 649
12.18 618
12.24 595
12.3 626
12.36 665
12.42 623
12.48 631
12.54 572
12.6 627
12.66 590
12.72 645
12.78 646
12.84 606
12.9 646
12.96 634
13.02 663
13.08 637
13.14 616
13.2 644
13.26 658
13.32 652
13.38 702
13.44 633
13.5 634
13.56 643
13.62 669
13.68 694
13.74 685
13.8 674
13.86 717
13.92 667
13.98 708
14.04 652
14.1 711
14.16 716
14.22 685
14.28 720
14.34 712
14.4 692
14.46 740
14.52 698
14.58 698
14.64 701
14.7 717
14.76 731
14.82 728
14.88 711
14.94 769
15 750
15.06 752
15.12 782
15.18 762
15.24 805
15.3 822
15.36 768
15.42 806
15.48 761
15.54 818
15.6 793
15.66 811
15.72 833
15.78 782
15.84 869
15.9 853
15.96 801
16.02 852
16.08 816
16.14 803
16.2 895
16.26 844
16.32 852
16.38 859
16.44 873
16.5 872
16.56 933
16.62 966
16.68 1019
16.74 964
16.8 962
16.86 1148
16.92 1299
16.98 1792
17.04 1956
17.1 1934
17.16 2002
17.22 1486
17.28 1078
17.34 975
17.4 1006
17.46 963
17.52 1008
17.58 1067
17.64 1033
17.7 1094
17.76 1049
17.82 1093
17.88 1069
17.94 1118
18 1132
18.06 1028
18.12 1147
18.18 1150
18.24 1101
18.3 1142
18.36 1147
18.42 1153
18.48 1171
18.54 1156
18.6 1155
18.66 1258
18.72 1152
18.78 1218
18.84 1194
18.9 1256
18.96 1297
19.02 1254
19.08 1317
19.14 1242
19.2 1298
19.26 1337
19.32 1328
19.38 1451
19.44 1296
19.5 1271
19.56 1301
19.62 1307
19.68 1344
19.74 1321
19.8 1413
19.86 1307
19.92 1365
19.98 1344
20 1384