File: xrd-UiO-67/pxrddata/7-15.ASC
3 2429
3.06 2129
3.12 1929
3.18 1963
3.24 1756
3.3 1689
3.36 1622
3.42 1582
3.48 1591
3.54 1548
3.6 1414
3.66 1408
3.72 1449
3.78 1361
3.84 1357
3.9 1334
3.96 1266
4.02 1166
4.08 1156
4.14 1154
4.2 1092
4.26 1107
4.32 1045
4.38 1032
4.44 1056
4.5 1009
4.56 1012
4.62 1000
4.68 919
4.74 985
4.8 977
4.86 1027
4.92 931
4.98 917
5.04 903
5.1 870
5.16 893
5.22 890
5.28 856
5.34 889
5.4 880
5.46 900
5.52 865
5.58 892
5.64 878
5.7 896
5.76 873
5.82 883
5.88 828
5.94 862
6 894
6.06 858
6.12 907
6.18 903
6.24 841
6.3 883
6.36 872
6.42 868
6.48 829
6.54 865
6.6 870
6.66 849
6.72 863
6.78 802
6.84 849
6.9 826
6.96 815
7.02 884
7.08 814
7.14 810
7.2 812
7.26 850
7.32 798
7.38 823
7.44 798
7.5 833
7.56 839
7.62 885
7.68 822
7.74 849
7.8 836
7.86 792
7.92 824
7.98 825
8.04 814
8.1 786
8.16 780
8.22 782
8.28 839
8.34 783
8.4 784
8.46 789
8.52 784
8.58 791
8.64 762
8.7 785
8.76 768
8.82 805
8.88 859
8.94 776
9 761
9.06 748
9.12 798
9.18 756
9.24 795
9.3 793
9.36 781
9.42 738
9.48 745
9.54 730
9.6 744
9.66 692
9.72 744
9.78 760
9.84 749
9.9 751
9.96 696
10.02 730
10.08 743
10.14 698
10.2 685
10.26 694
10.32 698
10.38 736
10.44 723
10.5 763
10.56 696
10.62 676
10.68 757
10.74 755
10.8 728
10.86 714
10.92 689
10.98 694
11.04 690
11.1 687
11.16 723
11.22 676
11.28 717
11.34 701
11.4 720
11.46 700
11.52 698
11.58 706
11.64 723
11.7 681
11.76 760
11.82 736
11.88 725
11.94 692
12 721
12.06 762
12.12 693
12.18 707
12.24 737
12.3 719
12.36 685
12.42 746
12.48 678
12.54 700
12.6 744
12.66 763
12.72 730
12.78 763
12.84 777
12.9 756
12.96 775
13.02 771
13.08 770
13.14 753
13.2 784
13.26 731
13.32 771
13.38 757
13.44 809
13.5 760
13.56 789
13.62 785
13.68 716
13.74 710
13.8 776
13.86 737
13.92 808
13.98 756
14.04 714
14.1 833
14.16 794
14.22 745
14.28 765
14.34 840
14.4 825
14.46 766
14.52 823
14.58 791
14.64 819
14.7 811
14.76 875
14.82 823
14.88 843
14.94 848
15 851
15.06 857
15.12 838
15.18 878
15.24 877
15.3 856
15.36 863
15.42 870
15.48 874
15.54 914
15.6 928
15.66 903
15.72 901
15.78 880
15.84 938
15.9 946
15.96 937
16.02 941
16.08 903
16.14 912
16.2 941
16.26 1001
16.32 945
16.38 922
16.44 998
16.5 967
16.56 956
16.62 978
16.68 1081
16.74 1095
16.8 1159
16.86 1382
16.92 1743
16.98 2309
17.04 2348
17.1 1561
17.16 1227
17.22 1115
17.28 1137
17.34 1100
17.4 1086
17.46 1107
17.52 1146
17.58 1128
17.64 1086
17.7 1107
17.76 1150
17.82 1141
17.88 1107
17.94 1119
18 1092
18.06 1141
18.12 1210
18.18 1163
18.24 1189
18.3 1172
18.36 1165
18.42 1300
18.48 1201
18.54 1266
18.6 1231
18.66 1234
18.72 1233
18.78 1246
18.84 1221
18.9 1291
18.96 1266
19.02 1270
19.08 1330
19.14 1283
19.2 1288
19.26 1361
19.32 1288
19.38 1364
19.44 1321
19.5 1351
19.56 1403
19.62 1393
19.68 1355
19.74 1435
19.8 1396
19.86 1447
19.92 1459
19.98 1423
20 1454