File: xrd-UiO-67/pxrddata/7-16.ASC
3 2137
3.06 1752
3.12 1523
3.18 1493
3.24 1380
3.3 1355
3.36 1352
3.42 1296
3.48 1248
3.54 1256
3.6 1206
3.66 1134
3.72 1104
3.78 1047
3.84 1003
3.9 975
3.96 1002
4.02 995
4.08 901
4.14 994
4.2 861
4.26 859
4.32 875
4.38 819
4.44 850
4.5 838
4.56 801
4.62 761
4.68 821
4.74 762
4.8 737
4.86 726
4.92 702
4.98 729
5.04 755
5.1 737
5.16 685
5.22 728
5.28 700
5.34 700
5.4 684
5.46 648
5.52 669
5.58 690
5.64 684
5.7 671
5.76 646
5.82 632
5.88 660
5.94 687
6 639
6.06 637
6.12 677
6.18 628
6.24 626
6.3 642
6.36 617
6.42 646
6.48 672
6.54 683
6.6 625
6.66 634
6.72 628
6.78 612
6.84 636
6.9 612
6.96 626
7.02 623
7.08 630
7.14 598
7.2 625
7.26 630
7.32 560
7.38 613
7.44 602
7.5 636
7.56 660
7.62 618
7.68 625
7.74 637
7.8 617
7.86 617
7.92 616
7.98 637
8.04 638
8.1 632
8.16 648
8.22 578
8.28 577
8.34 622
8.4 623
8.46 558
8.52 588
8.58 625
8.64 573
8.7 638
8.76 611
8.82 621
8.88 638
8.94 611
9 651
9.06 685
9.12 639
9.18 646
9.24 633
9.3 576
9.36 635
9.42 580
9.48 596
9.54 586
9.6 573
9.66 607
9.72 609
9.78 549
9.84 559
9.9 625
9.96 601
10.02 615
10.08 610
10.14 592
10.2 538
10.26 542
10.32 569
10.38 582
10.44 604
10.5 607
10.56 557
10.62 561
10.68 578
10.74 546
10.8 600
10.86 627
10.92 603
10.98 592
11.04 568
11.1 593
11.16 571
11.22 595
11.28 588
11.34 634
11.4 584
11.46 594
11.52 626
11.58 590
11.64 603
11.7 551
11.76 585
11.82 588
11.88 571
11.94 602
12 604
12.06 630
12.12 586
12.18 598
12.24 600
12.3 581
12.36 567
12.42 590
12.48 583
12.54 559
12.6 622
12.66 576
12.72 602
12.78 615
12.84 620
12.9 591
12.96 612
13.02 597
13.08 623
13.14 607
13.2 630
13.26 632
13.32 649
13.38 611
13.44 665
13.5 614
13.56 658
13.62 643
13.68 613
13.74 642
13.8 635
13.86 636
13.92 681
13.98 655
14.04 642
14.1 676
14.16 611
14.22 655
14.28 653
14.34 659
14.4 660
14.46 659
14.52 690
14.58 691
14.64 691
14.7 684
14.76 665
14.82 669
14.88 685
14.94 662
15 668
15.06 686
15.12 716
15.18 715
15.24 728
15.3 767
15.36 724
15.42 734
15.48 755
15.54 693
15.6 766
15.66 714
15.72 733
15.78 762
15.84 782
15.9 797
15.96 762
16.02 768
16.08 785
16.14 774
16.2 740
16.26 804
16.32 787
16.38 760
16.44 870
16.5 847
16.56 842
16.62 900
16.68 895
16.74 943
16.8 1045
16.86 1282
16.92 1704
16.98 2324
17.04 2461
17.1 1872
17.16 1394
17.22 1139
17.28 989
17.34 900
17.4 910
17.46 925
17.52 883
17.58 937
17.64 919
17.7 875
17.76 914
17.82 932
17.88 930
17.94 885
18 968
18.06 968
18.12 951
18.18 961
18.24 968
18.3 984
18.36 968
18.42 997
18.48 955
18.54 1083
18.6 1073
18.66 1063
18.72 1023
18.78 1035
18.84 1076
18.9 1093
18.96 1049
19.02 1094
19.08 1074
19.14 1102
19.2 1078
19.26 1101
19.32 1077
19.38 1070
19.44 1085
19.5 1147
19.56 1145
19.62 1151
19.68 1129
19.74 1139
19.8 1149
19.86 1186
19.92 1220
19.98 1128
20 1224