File: xrd-UiO-67/pxrddata/7-17.ASC
3 2075
3.06 1725
3.12 1515
3.18 1440
3.24 1432
3.3 1328
3.36 1324
3.42 1216
3.48 1216
3.54 1180
3.6 1162
3.66 1124
3.72 1151
3.78 1109
3.84 1043
3.9 1102
3.96 1052
4.02 1013
4.08 995
4.14 946
4.2 978
4.26 976
4.32 924
4.38 932
4.44 861
4.5 881
4.56 856
4.62 861
4.68 874
4.74 854
4.8 893
4.86 854
4.92 876
4.98 919
5.04 932
5.1 919
5.16 882
5.22 1034
5.28 992
5.34 984
5.4 1066
5.46 1066
5.52 1104
5.58 1147
5.64 1114
5.7 1142
5.76 1143
5.82 1101
5.88 1053
5.94 976
6 933
6.06 921
6.12 856
6.18 809
6.24 799
6.3 792
6.36 757
6.42 717
6.48 717
6.54 686
6.6 652
6.66 702
6.72 681
6.78 660
6.84 669
6.9 637
6.96 637
7.02 613
7.08 575
7.14 600
7.2 585
7.26 601
7.32 541
7.38 599
7.44 601
7.5 585
7.56 564
7.62 592
7.68 585
7.74 581
7.8 593
7.86 534
7.92 524
7.98 548
8.04 548
8.1 538
8.16 559
8.22 523
8.28 535
8.34 542
8.4 560
8.46 550
8.52 556
8.58 566
8.64 547
8.7 508
8.76 561
8.82 531
8.88 571
8.94 547
9 574
9.06 533
9.12 580
9.18 578
9.24 583
9.3 665
9.36 623
9.42 610
9.48 602
9.54 575
9.6 550
9.66 555
9.72 527
9.78 573
9.84 567
9.9 535
9.96 497
10.02 545
10.08 529
10.14 555
10.2 549
10.26 563
10.32 493
10.38 522
10.44 506
10.5 488
10.56 526
10.62 571
10.68 513
10.74 549
10.8 475
10.86 528
10.92 517
10.98 563
11.04 566
11.1 554
11.16 537
11.22 565
11.28 521
11.34 541
11.4 511
11.46 521
11.52 522
11.58 516
11.64 510
11.7 497
11.76 515
11.82 465
11.88 480
11.94 492
12 470
12.06 484
12.12 446
12.18 488
12.24 455
12.3 475
12.36 487
12.42 479
12.48 484
12.54 469
12.6 461
12.66 450
12.72 501
12.78 503
12.84 472
12.9 494
12.96 490
13.02 467
13.08 452
13.14 472
13.2 511
13.26 486
13.32 476
13.38 509
13.44 500
13.5 470
13.56 480
13.62 489
13.68 511
13.74 460
13.8 509
13.86 529
13.92 493
13.98 471
14.04 527
14.1 517
14.16 544
14.22 521
14.28 495
14.34 512
14.4 501
14.46 531
14.52 534
14.58 510
14.64 523
14.7 555
14.76 551
14.82 572
14.88 562
14.94 590
15 507
15.06 563
15.12 530
15.18 529
15.24 582
15.3 550
15.36 554
15.42 559
15.48 553
15.54 565
15.6 552
15.66 553
15.72 566
15.78 539
15.84 631
15.9 565
15.96 618
16.02 568
16.08 597
16.14 594
16.2 583
16.26 614
16.32 594
16.38 663
16.44 629
16.5 616
16.56 649
16.62 684
16.68 622
16.74 715
16.8 658
16.86 656
16.92 673
16.98 779
17.04 915
17.1 1066
17.16 1167
17.22 943
17.28 712
17.34 679
17.4 684
17.46 732
17.52 675
17.58 731
17.64 730
17.7 696
17.76 688
17.82 727
17.88 738
17.94 734
18 703
18.06 735
18.12 758
18.18 721
18.24 776
18.3 726
18.36 721
18.42 748
18.48 734
18.54 797
18.6 790
18.66 765
18.72 778
18.78 784
18.84 841
18.9 808
18.96 808
19.02 885
19.08 848
19.14 849
19.2 811
19.26 864
19.32 866
19.38 914
19.44 858
19.5 906
19.56 910
19.62 902
19.68 896
19.74 930
19.8 898
19.86 941
19.92 872
19.98 959
20 920