File: xrd-UiO-67/pxrddata/7-18.ASC
3 2467
3.06 2045
3.12 1865
3.18 1781
3.24 1775
3.3 1721
3.36 1745
3.42 1622
3.48 1631
3.54 1509
3.6 1581
3.66 1563
3.72 1421
3.78 1433
3.84 1401
3.9 1356
3.96 1382
4.02 1347
4.08 1319
4.14 1251
4.2 1253
4.26 1180
4.32 1178
4.38 1148
4.44 1171
4.5 1129
4.56 1123
4.62 1124
4.68 1140
4.74 1085
4.8 1052
4.86 1022
4.92 1019
4.98 955
5.04 1072
5.1 1044
5.16 1021
5.22 989
5.28 963
5.34 996
5.4 948
5.46 980
5.52 963
5.58 942
5.64 966
5.7 971
5.76 919
5.82 957
5.88 924
5.94 996
6 957
6.06 923
6.12 891
6.18 924
6.24 949
6.3 892
6.36 965
6.42 890
6.48 935
6.54 939
6.6 896
6.66 915
6.72 915
6.78 887
6.84 906
6.9 931
6.96 939
7.02 911
7.08 898
7.14 902
7.2 880
7.26 853
7.32 882
7.38 958
7.44 877
7.5 857
7.56 894
7.62 894
7.68 897
7.74 889
7.8 934
7.86 918
7.92 898
7.98 890
8.04 900
8.1 880
8.16 853
8.22 828
8.28 882
8.34 860
8.4 869
8.46 881
8.52 841
8.58 875
8.64 886
8.7 821
8.76 840
8.82 845
8.88 840
8.94 880
9 807
9.06 882
9.12 848
9.18 862
9.24 836
9.3 822
9.36 791
9.42 810
9.48 864
9.54 837
9.6 827
9.66 850
9.72 831
9.78 860
9.84 802
9.9 787
9.96 819
10.02 821
10.08 857
10.14 831
10.2 807
10.26 800
10.32 756
10.38 809
10.44 785
10.5 791
10.56 777
10.62 765
10.68 821
10.74 800
10.8 771
10.86 770
10.92 757
10.98 805
11.04 809
11.1 766
11.16 796
11.22 805
11.28 797
11.34 809
11.4 794
11.46 760
11.52 732
11.58 758
11.64 781
11.7 778
11.76 748
11.82 789
11.88 780
11.94 816
12 779
12.06 759
12.12 780
12.18 760
12.24 817
12.3 832
12.36 804
12.42 774
12.48 814
12.54 777
12.6 749
12.66 754
12.72 794
12.78 815
12.84 844
12.9 798
12.96 805
13.02 864
13.08 812
13.14 833
13.2 831
13.26 840
13.32 890
13.38 851
13.44 853
13.5 837
13.56 884
13.62 821
13.68 892
13.74 782
13.8 788
13.86 854
13.92 856
13.98 832
14.04 820
14.1 856
14.16 812
14.22 847
14.28 849
14.34 857
14.4 833
14.46 864
14.52 889
14.58 894
14.64 843
14.7 879
14.76 852
14.82 914
14.88 887
14.94 864
15 901
15.06 896
15.12 884
15.18 884
15.24 861
15.3 944
15.36 908
15.42 916
15.48 933
15.54 882
15.6 938
15.66 949
15.72 919
15.78 917
15.84 936
15.9 996
15.96 990
16.02 942
16.08 966
16.14 976
16.2 951
16.26 1015
16.32 979
16.38 965
16.44 1023
16.5 1016
16.56 987
16.62 1089
16.68 1144
16.74 1188
16.8 1260
16.86 1470
16.92 1947
16.98 2499
17.04 2374
17.1 1705
17.16 1349
17.22 1180
17.28 1162
17.34 1124
17.4 1104
17.46 1120
17.52 1050
17.58 1145
17.64 1124
17.7 1205
17.76 1143
17.82 1222
17.88 1190
17.94 1247
18 1264
18.06 1193
18.12 1156
18.18 1214
18.24 1175
18.3 1233
18.36 1221
18.42 1282
18.48 1290
18.54 1294
18.6 1283
18.66 1291
18.72 1344
18.78 1386
18.84 1313
18.9 1338
18.96 1343
19.02 1303
19.08 1328
19.14 1269
19.2 1347
19.26 1367
19.32 1418
19.38 1340
19.44 1399
19.5 1364
19.56 1462
19.62 1472
19.68 1436
19.74 1477
19.8 1489
19.86 1482
19.92 1561
19.98 1521
20 1480