File: xrd-UiO-67/pxrddata/7-2.ASC
3 2033
3.06 1594
3.12 1387
3.18 1383
3.24 1283
3.3 1279
3.36 1260
3.42 1267
3.48 1176
3.54 1121
3.6 1127
3.66 1138
3.72 1092
3.78 1075
3.84 997
3.9 1014
3.96 947
4.02 956
4.08 968
4.14 916
4.2 891
4.26 896
4.32 874
4.38 901
4.44 886
4.5 868
4.56 795
4.62 819
4.68 825
4.74 776
4.8 788
4.86 785
4.92 800
4.98 772
5.04 775
5.1 717
5.16 775
5.22 772
5.28 768
5.34 771
5.4 711
5.46 739
5.52 752
5.58 731
5.64 748
5.7 712
5.76 744
5.82 729
5.88 759
5.94 662
6 719
6.06 740
6.12 707
6.18 698
6.24 675
6.3 675
6.36 733
6.42 716
6.48 723
6.54 776
6.6 721
6.66 732
6.72 728
6.78 656
6.84 673
6.9 707
6.96 725
7.02 666
7.08 737
7.14 685
7.2 685
7.26 659
7.32 700
7.38 724
7.44 670
7.5 653
7.56 684
7.62 659
7.68 643
7.74 660
7.8 662
7.86 668
7.92 637
7.98 673
8.04 655
8.1 659
8.16 677
8.22 667
8.28 663
8.34 681
8.4 655
8.46 652
8.52 621
8.58 676
8.64 656
8.7 614
8.76 659
8.82 646
8.88 617
8.94 621
9 648
9.06 646
9.12 611
9.18 623
9.24 591
9.3 669
9.36 615
9.42 637
9.48 626
9.54 622
9.6 625
9.66 631
9.72 602
9.78 608
9.84 562
9.9 636
9.96 615
10.02 633
10.08 659
10.14 600
10.2 586
10.26 606
10.32 602
10.38 611
10.44 620
10.5 604
10.56 579
10.62 588
10.68 599
10.74 604
10.8 642
10.86 611
10.92 597
10.98 639
11.04 662
11.1 584
11.16 643
11.22 609
11.28 560
11.34 611
11.4 603
11.46 606
11.52 573
11.58 578
11.64 577
11.7 584
11.76 600
11.82 602
11.88 608
11.94 616
12 607
12.06 579
12.12 623
12.18 605
12.24 607
12.3 629
12.36 628
12.42 610
12.48 620
12.54 614
12.6 630
12.66 619
12.72 639
12.78 604
12.84 596
12.9 599
12.96 622
13.02 647
13.08 643
13.14 579
13.2 653
13.26 648
13.32 609
13.38 609
13.44 618
13.5 668
13.56 636
13.62 660
13.68 673
13.74 644
13.8 610
13.86 632
13.92 612
13.98 575
14.04 641
14.1 646
14.16 626
14.22 656
14.28 629
14.34 674
14.4 666
14.46 696
14.52 638
14.58 668
14.64 706
14.7 660
14.76 699
14.82 717
14.88 664
14.94 710
15 723
15.06 667
15.12 727
15.18 727
15.24 679
15.3 714
15.36 738
15.42 742
15.48 690
15.54 760
15.6 743
15.66 786
15.72 801
15.78 744
15.84 755
15.9 763
15.96 782
16.02 815
16.08 734
16.14 795
16.2 775
16.26 828
16.32 815
16.38 840
16.44 806
16.5 808
16.56 876
16.62 860
16.68 842
16.74 828
16.8 842
16.86 885
16.92 912
16.98 962
17.04 1100
17.1 1091
17.16 1069
17.22 1073
17.28 1019
17.34 948
17.4 945
17.46 941
17.52 987
17.58 1006
17.64 979
17.7 946
17.76 1026
17.82 1035
17.88 1028
17.94 1014
18 1068
18.06 1096
18.12 1019
18.18 1079
18.24 1082
18.3 1059
18.36 1106
18.42 1089
18.48 1129
18.54 1182
18.6 1187
18.66 1226
18.72 1200
18.78 1156
18.84 1190
18.9 1209
18.96 1243
19.02 1218
19.08 1256
19.14 1166
19.2 1255
19.26 1215
19.32 1250
19.38 1287
19.44 1274
19.5 1307
19.56 1272
19.62 1333
19.68 1307
19.74 1336
19.8 1371
19.86 1315
19.92 1349
19.98 1411
20 1416