File: xrd-UiO-67/pxrddata/7-20.ASC
3 2296
3.06 1858
3.12 1733
3.18 1605
3.24 1576
3.3 1463
3.36 1440
3.42 1392
3.48 1418
3.54 1367
3.6 1316
3.66 1301
3.72 1230
3.78 1233
3.84 1158
3.9 1175
3.96 1105
4.02 1168
4.08 1104
4.14 1048
4.2 1029
4.26 1002
4.32 1079
4.38 976
4.44 988
4.5 1023
4.56 936
4.62 960
4.68 916
4.74 945
4.8 951
4.86 919
4.92 951
4.98 975
5.04 947
5.1 1041
5.16 1054
5.22 1038
5.28 1023
5.34 1087
5.4 1116
5.46 1208
5.52 1242
5.58 1240
5.64 1244
5.7 1190
5.76 1268
5.82 1233
5.88 1201
5.94 1082
6 961
6.06 906
6.12 921
6.18 803
6.24 861
6.3 874
6.36 817
6.42 802
6.48 855
6.54 743
6.6 741
6.66 785
6.72 796
6.78 795
6.84 790
6.9 765
6.96 789
7.02 748
7.08 735
7.14 756
7.2 736
7.26 773
7.32 736
7.38 741
7.44 739
7.5 731
7.56 748
7.62 713
7.68 764
7.74 768
7.8 747
7.86 745
7.92 731
7.98 726
8.04 729
8.1 776
8.16 756
8.22 722
8.28 726
8.34 713
8.4 726
8.46 695
8.52 705
8.58 734
8.64 693
8.7 731
8.76 738
8.82 735
8.88 760
8.94 717
9 731
9.06 755
9.12 813
9.18 815
9.24 801
9.3 833
9.36 849
9.42 792
9.48 759
9.54 751
9.6 713
9.66 709
9.72 725
9.78 756
9.84 720
9.9 712
9.96 715
10.02 728
10.08 676
10.14 765
10.2 683
10.26 775
10.32 684
10.38 651
10.44 721
10.5 692
10.56 727
10.62 714
10.68 719
10.74 718
10.8 736
10.86 748
10.92 803
10.98 744
11.04 748
11.1 719
11.16 709
11.22 701
11.28 719
11.34 710
11.4 718
11.46 662
11.52 704
11.58 709
11.64 689
11.7 670
11.76 674
11.82 670
11.88 683
11.94 670
12 693
12.06 654
12.12 678
12.18 691
12.24 678
12.3 712
12.36 708
12.42 689
12.48 660
12.54 696
12.6 695
12.66 667
12.72 693
12.78 687
12.84 678
12.9 643
12.96 700
13.02 715
13.08 707
13.14 689
13.2 709
13.26 692
13.32 692
13.38 721
13.44 770
13.5 697
13.56 730
13.62 709
13.68 750
13.74 721
13.8 757
13.86 726
13.92 755
13.98 698
14.04 710
14.1 733
14.16 773
14.22 741
14.28 757
14.34 746
14.4 712
14.46 754
14.52 763
14.58 773
14.64 780
14.7 817
14.76 779
14.82 816
14.88 729
14.94 780
15 803
15.06 796
15.12 845
15.18 833
15.24 817
15.3 817
15.36 795
15.42 784
15.48 841
15.54 812
15.6 852
15.66 863
15.72 843
15.78 894
15.84 803
15.9 812
15.96 859
16.02 855
16.08 826
16.14 850
16.2 907
16.26 819
16.32 886
16.38 889
16.44 925
16.5 883
16.56 928
16.62 876
16.68 851
16.74 911
16.8 914
16.86 876
16.92 938
16.98 912
17.04 919
17.1 926
17.16 958
17.22 926
17.28 892
17.34 1007
17.4 964
17.46 960
17.52 1045
17.58 967
17.64 1016
17.7 987
17.76 970
17.82 1053
17.88 980
17.94 971
18 1028
18.06 1024
18.12 1012
18.18 1084
18.24 985
18.3 991
18.36 1045
18.42 1003
18.48 1085
18.54 1045
18.6 1073
18.66 1114
18.72 1042
18.78 1085
18.84 1094
18.9 1055
18.96 1091
19.02 1115
19.08 1161
19.14 1156
19.2 1101
19.26 1160
19.32 1145
19.38 1158
19.44 1156
19.5 1176
19.56 1189
19.62 1155
19.68 1185
19.74 1168
19.8 1185
19.86 1134
19.92 1224
19.98 1168
20 1174