File: xrd-UiO-67/pxrddata/7-21.ASC
3 2214
3.06 1691
3.12 1577
3.18 1469
3.24 1459
3.3 1317
3.36 1374
3.42 1292
3.48 1311
3.54 1218
3.6 1214
3.66 1156
3.72 1160
3.78 1103
3.84 1078
3.9 1081
3.96 1050
4.02 999
4.08 989
4.14 895
4.2 938
4.26 951
4.32 931
4.38 890
4.44 881
4.5 840
4.56 832
4.62 828
4.68 846
4.74 813
4.8 831
4.86 819
4.92 788
4.98 827
5.04 754
5.1 788
5.16 809
5.22 785
5.28 756
5.34 763
5.4 705
5.46 687
5.52 735
5.58 755
5.64 791
5.7 732
5.76 753
5.82 711
5.88 750
5.94 741
6 748
6.06 706
6.12 726
6.18 719
6.24 731
6.3 749
6.36 719
6.42 691
6.48 699
6.54 721
6.6 711
6.66 713
6.72 658
6.78 715
6.84 704
6.9 688
6.96 702
7.02 696
7.08 711
7.14 701
7.2 693
7.26 710
7.32 640
7.38 684
7.44 708
7.5 681
7.56 680
7.62 644
7.68 661
7.74 693
7.8 686
7.86 698
7.92 654
7.98 651
8.04 691
8.1 732
8.16 659
8.22 680
8.28 686
8.34 710
8.4 643
8.46 630
8.52 705
8.58 655
8.64 635
8.7 653
8.76 675
8.82 634
8.88 629
8.94 648
9 670
9.06 667
9.12 637
9.18 589
9.24 664
9.3 621
9.36 652
9.42 655
9.48 657
9.54 646
9.6 660
9.66 672
9.72 631
9.78 612
9.84 636
9.9 647
9.96 627
10.02 565
10.08 623
10.14 648
10.2 619
10.26 635
10.32 580
10.38 656
10.44 595
10.5 620
10.56 643
10.62 621
10.68 571
10.74 602
10.8 587
10.86 596
10.92 589
10.98 611
11.04 601
11.1 611
11.16 622
11.22 592
11.28 588
11.34 609
11.4 628
11.46 607
11.52 581
11.58 620
11.64 602
11.7 593
11.76 618
11.82 565
11.88 625
11.94 608
12 578
12.06 613
12.12 631
12.18 578
12.24 589
12.3 580
12.36 634
12.42 574
12.48 601
12.54 654
12.6 620
12.66 645
12.72 577
12.78 616
12.84 653
12.9 650
12.96 599
13.02 609
13.08 623
13.14 633
13.2 582
13.26 620
13.32 613
13.38 658
13.44 637
13.5 641
13.56 674
13.62 634
13.68 654
13.74 635
13.8 689
13.86 632
13.92 620
13.98 647
14.04 651
14.1 668
14.16 688
14.22 644
14.28 637
14.34 668
14.4 656
14.46 669
14.52 706
14.58 697
14.64 678
14.7 675
14.76 699
14.82 703
14.88 698
14.94 720
15 715
15.06 700
15.12 695
15.18 725
15.24 798
15.3 741
15.36 739
15.42 788
15.48 748
15.54 756
15.6 721
15.66 785
15.72 738
15.78 782
15.84 783
15.9 796
15.96 765
16.02 725
16.08 768
16.14 824
16.2 808
16.26 825
16.32 768
16.38 805
16.44 858
16.5 801
16.56 879
16.62 921
16.68 877
16.74 937
16.8 1004
16.86 1063
16.92 1190
16.98 1424
17.04 1942
17.1 2224
17.16 1948
17.22 1219
17.28 1006
17.34 994
17.4 981
17.46 953
17.52 979
17.58 999
17.64 991
17.7 1002
17.76 1025
17.82 1042
17.88 1031
17.94 1059
18 1041
18.06 1036
18.12 1079
18.18 1075
18.24 1029
18.3 1072
18.36 1057
18.42 1105
18.48 1101
18.54 1097
18.6 1119
18.66 1107
18.72 1195
18.78 1138
18.84 1130
18.9 1174
18.96 1217
19.02 1188
19.08 1220
19.14 1219
19.2 1227
19.26 1209
19.32 1299
19.38 1219
19.44 1282
19.5 1311
19.56 1242
19.62 1267
19.68 1275
19.74 1311
19.8 1325
19.86 1313
19.92 1350
19.98 1329
20 1404