File: xrd-UiO-67/pxrddata/7-22.ASC
3 2381
3.06 1955
3.12 1677
3.18 1618
3.24 1466
3.3 1515
3.36 1350
3.42 1374
3.48 1336
3.54 1288
3.6 1264
3.66 1217
3.72 1199
3.78 1124
3.84 1082
3.9 1082
3.96 1019
4.02 1038
4.08 902
4.14 912
4.2 933
4.26 894
4.32 895
4.38 905
4.44 897
4.5 892
4.56 824
4.62 838
4.68 785
4.74 792
4.8 767
4.86 818
4.92 778
4.98 723
5.04 740
5.1 719
5.16 775
5.22 707
5.28 761
5.34 731
5.4 725
5.46 698
5.52 785
5.58 753
5.64 729
5.7 689
5.76 731
5.82 726
5.88 722
5.94 682
6 688
6.06 707
6.12 695
6.18 721
6.24 718
6.3 710
6.36 691
6.42 701
6.48 659
6.54 692
6.6 671
6.66 650
6.72 728
6.78 678
6.84 689
6.9 710
6.96 700
7.02 688
7.08 651
7.14 671
7.2 676
7.26 678
7.32 724
7.38 660
7.44 719
7.5 715
7.56 692
7.62 665
7.68 654
7.74 665
7.8 664
7.86 637
7.92 677
7.98 699
8.04 648
8.1 697
8.16 663
8.22 691
8.28 673
8.34 660
8.4 644
8.46 666
8.52 661
8.58 673
8.64 667
8.7 635
8.76 637
8.82 620
8.88 601
8.94 658
9 650
9.06 655
9.12 660
9.18 612
9.24 609
9.3 673
9.36 646
9.42 628
9.48 657
9.54 650
9.6 639
9.66 636
9.72 635
9.78 619
9.84 608
9.9 589
9.96 599
10.02 624
10.08 613
10.14 643
10.2 641
10.26 604
10.32 587
10.38 617
10.44 594
10.5 583
10.56 624
10.62 615
10.68 591
10.74 628
10.8 607
10.86 591
10.92 571
10.98 640
11.04 623
11.1 640
11.16 604
11.22 661
11.28 653
11.34 594
11.4 627
11.46 625
11.52 646
11.58 592
11.64 642
11.7 600
11.76 627
11.82 652
11.88 670
11.94 632
12 625
12.06 586
12.12 614
12.18 687
12.24 662
12.3 608
12.36 610
12.42 605
12.48 644
12.54 618
12.6 662
12.66 611
12.72 676
12.78 625
12.84 664
12.9 706
12.96 698
13.02 634
13.08 658
13.14 647
13.2 642
13.26 662
13.32 669
13.38 713
13.44 667
13.5 678
13.56 653
13.62 625
13.68 666
13.74 659
13.8 679
13.86 697
13.92 686
13.98 653
14.04 720
14.1 699
14.16 716
14.22 723
14.28 662
14.34 691
14.4 694
14.46 690
14.52 727
14.58 754
14.64 710
14.7 749
14.76 694
14.82 720
14.88 730
14.94 721
15 722
15.06 700
15.12 744
15.18 817
15.24 781
15.3 793
15.36 792
15.42 759
15.48 762
15.54 794
15.6 727
15.66 781
15.72 787
15.78 856
15.84 846
15.9 816
15.96 832
16.02 803
16.08 786
16.14 822
16.2 823
16.26 825
16.32 825
16.38 841
16.44 882
16.5 964
16.56 895
16.62 877
16.68 955
16.74 985
16.8 1023
16.86 1136
16.92 1304
16.98 1876
17.04 2504
17.1 2003
17.16 1193
17.22 1037
17.28 989
17.34 953
17.4 979
17.46 975
17.52 1042
17.58 1059
17.64 1033
17.7 968
17.76 1006
17.82 1012
17.88 1017
17.94 1014
18 1067
18.06 1050
18.12 1062
18.18 1086
18.24 1122
18.3 1066
18.36 1064
18.42 1107
18.48 1158
18.54 1132
18.6 1090
18.66 1121
18.72 1143
18.78 1109
18.84 1202
18.9 1231
18.96 1161
19.02 1200
19.08 1216
19.14 1235
19.2 1226
19.26 1203
19.32 1263
19.38 1221
19.44 1281
19.5 1254
19.56 1279
19.62 1321
19.68 1351
19.74 1369
19.8 1368
19.86 1318
19.92 1376
19.98 1378
20 1385