File: xrd-UiO-67/pxrddata/7-23.ASC
3 2253
3.06 1811
3.12 1504
3.18 1465
3.24 1398
3.3 1285
3.36 1312
3.42 1268
3.48 1239
3.54 1173
3.6 1134
3.66 1149
3.72 1106
3.78 1157
3.84 1043
3.9 1113
3.96 1051
4.02 1020
4.08 1033
4.14 1045
4.2 1093
4.26 1066
4.32 1043
4.38 1018
4.44 1072
4.5 1009
4.56 1033
4.62 999
4.68 1076
4.74 1014
4.8 1020
4.86 1068
4.92 1044
4.98 1001
5.04 1074
5.1 1099
5.16 1040
5.22 998
5.28 1049
5.34 1086
5.4 1082
5.46 1049
5.52 1099
5.58 1087
5.64 1069
5.7 1001
5.76 1092
5.82 1072
5.88 1050
5.94 1007
6 1016
6.06 988
6.12 988
6.18 1003
6.24 963
6.3 959
6.36 955
6.42 922
6.48 918
6.54 903
6.6 904
6.66 855
6.72 763
6.78 848
6.84 781
6.9 780
6.96 731
7.02 741
7.08 739
7.14 752
7.2 723
7.26 675
7.32 716
7.38 660
7.44 692
7.5 662
7.56 596
7.62 638
7.68 645
7.74 590
7.8 621
7.86 632
7.92 612
7.98 619
8.04 562
8.1 553
8.16 609
8.22 596
8.28 617
8.34 609
8.4 556
8.46 603
8.52 569
8.58 563
8.64 528
8.7 560
8.76 593
8.82 579
8.88 570
8.94 558
9 561
9.06 566
9.12 558
9.18 583
9.24 558
9.3 581
9.36 589
9.42 550
9.48 535
9.54 569
9.6 532
9.66 573
9.72 525
9.78 516
9.84 510
9.9 519
9.96 537
10.02 559
10.08 502
10.14 515
10.2 514
10.26 558
10.32 517
10.38 501
10.44 537
10.5 584
10.56 520
10.62 503
10.68 485
10.74 520
10.8 535
10.86 525
10.92 541
10.98 477
11.04 502
11.1 540
11.16 530
11.22 540
11.28 529
11.34 536
11.4 538
11.46 526
11.52 547
11.58 502
11.64 510
11.7 548
11.76 496
11.82 537
11.88 491
11.94 505
12 508
12.06 511
12.12 487
12.18 486
12.24 505
12.3 505
12.36 442
12.42 495
12.48 498
12.54 461
12.6 495
12.66 476
12.72 489
12.78 482
12.84 513
12.9 508
12.96 518
13.02 486
13.08 520
13.14 476
13.2 530
13.26 534
13.32 489
13.38 495
13.44 508
13.5 532
13.56 460
13.62 513
13.68 499
13.74 493
13.8 498
13.86 498
13.92 508
13.98 519
14.04 462
14.1 501
14.16 509
14.22 488
14.28 512
14.34 518
14.4 515
14.46 526
14.52 502
14.58 521
14.64 532
14.7 576
14.76 562
14.82 519
14.88 494
14.94 543
15 550
15.06 511
15.12 504
15.18 564
15.24 524
15.3 525
15.36 550
15.42 543
15.48 598
15.54 557
15.6 561
15.66 535
15.72 547
15.78 567
15.84 597
15.9 567
15.96 573
16.02 600
16.08 535
16.14 568
16.2 594
16.26 605
16.32 592
16.38 557
16.44 606
16.5 597
16.56 610
16.62 591
16.68 642
16.74 629
16.8 616
16.86 631
16.92 674
16.98 633
17.04 693
17.1 651
17.16 679
17.22 677
17.28 672
17.34 650
17.4 652
17.46 658
17.52 727
17.58 721
17.64 660
17.7 714
17.76 726
17.82 685
17.88 739
17.94 696
18 709
18.06 705
18.12 748
18.18 722
18.24 773
18.3 755
18.36 781
18.42 781
18.48 763
18.54 759
18.6 813
18.66 738
18.72 744
18.78 767
18.84 787
18.9 802
18.96 764
19.02 787
19.08 865
19.14 832
19.2 819
19.26 863
19.32 859
19.38 866
19.44 856
19.5 797
19.56 885
19.62 840
19.68 867
19.74 849
19.8 852
19.86 837
19.92 897
19.98 883
20 855