File: xrd-UiO-67/pxrddata/7-24.ASC
3 2412
3.06 1908
3.12 1682
3.18 1674
3.24 1567
3.3 1465
3.36 1476
3.42 1426
3.48 1418
3.54 1317
3.6 1316
3.66 1273
3.72 1279
3.78 1237
3.84 1190
3.9 1277
3.96 1165
4.02 1114
4.08 1202
4.14 1172
4.2 1114
4.26 1144
4.32 1134
4.38 1076
4.44 1185
4.5 1110
4.56 1107
4.62 1143
4.68 1164
4.74 1147
4.8 1172
4.86 1192
4.92 1190
4.98 1298
5.04 1335
5.1 1382
5.16 1409
5.22 1609
5.28 1613
5.34 1681
5.4 1775
5.46 2029
5.52 2238
5.58 2617
5.64 3015
5.7 3528
5.76 3914
5.82 3067
5.88 2085
5.94 1664
6 1531
6.06 1458
6.12 1389
6.18 1416
6.24 1433
6.3 1503
6.36 1541
6.42 1554
6.48 1776
6.54 1959
6.6 2149
6.66 2230
6.72 1696
6.78 1283
6.84 1170
6.9 1109
6.96 1129
7.02 1143
7.08 1108
7.14 1136
7.2 1038
7.26 1068
7.32 1097
7.38 1076
7.44 1027
7.5 1028
7.56 990
7.62 1006
7.68 1013
7.74 930
7.8 1008
7.86 961
7.92 943
7.98 945
8.04 952
8.1 928
8.16 932
8.22 932
8.28 928
8.34 897
8.4 890
8.46 948
8.52 881
8.58 919
8.64 861
8.7 921
8.76 893
8.82 957
8.88 992
8.94 955
9 989
9.06 1067
9.12 1089
9.18 1274
9.24 1413
9.3 1596
9.36 1978
9.42 1707
9.48 1287
9.54 1093
9.6 1054
9.66 1041
9.72 977
9.78 966
9.84 965
9.9 1009
9.96 902
10.02 909
10.08 992
10.14 921
10.2 960
10.26 959
10.32 933
10.38 970
10.44 968
10.5 1007
10.56 1049
10.62 1069
10.68 1109
10.74 1173
10.8 1231
10.86 1313
10.92 1609
10.98 1733
11.04 1517
11.1 1171
11.16 1152
11.22 1111
11.28 1146
11.34 1210
11.4 1202
11.46 1331
11.52 1265
11.58 1106
11.64 975
11.7 1018
11.76 1006
11.82 966
11.88 1017
11.94 998
12 973
12.06 960
12.12 943
12.18 961
12.24 921
12.3 958
12.36 956
12.42 1011
12.48 1003
12.54 993
12.6 957
12.66 991
12.72 999
12.78 930
12.84 1026
12.9 1001
12.96 1036
13.02 1002
13.08 1078
13.14 1089
13.2 1124
13.26 1183
13.32 1149
13.38 1072
13.44 1118
13.5 1080
13.56 1057
13.62 1049
13.68 1098
13.74 1135
13.8 1079
13.86 1157
13.92 1141
13.98 1133
14.04 1225
14.1 1194
14.16 1149
14.22 1239
14.28 1240
14.34 1300
14.4 1390
14.46 1356
14.52 1314
14.58 1302
14.64 1274
14.7 1274
14.76 1273
14.82 1253
14.88 1280
14.94 1280
15 1317
15.06 1344
15.12 1325
15.18 1363
15.24 1350
15.3 1323
15.36 1338
15.42 1396
15.48 1455
15.54 1432
15.6 1375
15.66 1402
15.72 1484
15.78 1412
15.84 1435
15.9 1489
15.96 1501
16.02 1556
16.08 1505
16.14 1582
16.2 1620
16.26 1507
16.32 1549
16.38 1603
16.44 1572
16.5 1612
16.56 1608
16.62 1639
16.68 1640
16.74 1725
16.8 1738
16.86 1766
16.92 1784
16.98 1764
17.04 1883
17.1 1849
17.16 1894
17.22 2004
17.28 2002
17.34 1902
17.4 1880
17.46 1891
17.52 1927
17.58 1951
17.64 1977
17.7 1996
17.76 1896
17.82 2009
17.88 1951
17.94 1992
18 2054
18.06 2010
18.12 2140
18.18 2039
18.24 2104
18.3 2080
18.36 2110
18.42 2166
18.48 2072
18.54 2215
18.6 2196
18.66 2203
18.72 2208
18.78 2271
18.84 2200
18.9 2253
18.96 2364
19.02 2315
19.08 2308
19.14 2320
19.2 2470
19.26 2402
19.32 2396
19.38 2419
19.44 2516
19.5 2590
19.56 2752
19.62 2803
19.68 2711
19.74 2663
19.8 2818
19.86 2801
19.92 2884
19.98 2667
20 2574