File: xrd-UiO-67/pxrddata/7-28.ASC
3 2008
3.06 1648
3.12 1428
3.18 1401
3.24 1344
3.3 1335
3.36 1222
3.42 1245
3.48 1119
3.54 1119
3.6 1087
3.66 1115
3.72 1097
3.78 1102
3.84 1028
3.9 1035
3.96 1013
4.02 995
4.08 1030
4.14 964
4.2 927
4.26 955
4.32 948
4.38 908
4.44 969
4.5 880
4.56 910
4.62 940
4.68 926
4.74 925
4.8 937
4.86 939
4.92 889
4.98 984
5.04 945
5.1 935
5.16 971
5.22 970
5.28 961
5.34 981
5.4 1015
5.46 1037
5.52 1016
5.58 995
5.64 1012
5.7 1035
5.76 1060
5.82 1041
5.88 1047
5.94 978
6 1042
6.06 1032
6.12 1045
6.18 1011
6.24 1032
6.3 992
6.36 1008
6.42 1036
6.48 1011
6.54 926
6.6 990
6.66 941
6.72 928
6.78 871
6.84 895
6.9 865
6.96 812
7.02 827
7.08 854
7.14 860
7.2 831
7.26 828
7.32 748
7.38 764
7.44 788
7.5 759
7.56 752
7.62 770
7.68 768
7.74 749
7.8 708
7.86 681
7.92 718
7.98 732
8.04 733
8.1 738
8.16 718
8.22 724
8.28 664
8.34 738
8.4 679
8.46 742
8.52 689
8.58 713
8.64 662
8.7 744
8.76 712
8.82 695
8.88 654
8.94 665
9 671
9.06 672
9.12 654
9.18 708
9.24 702
9.3 670
9.36 709
9.42 692
9.48 678
9.54 637
9.6 644
9.66 748
9.72 689
9.78 691
9.84 680
9.9 696
9.96 683
10.02 730
10.08 689
10.14 726
10.2 689
10.26 710
10.32 689
10.38 707
10.44 726
10.5 703
10.56 704
10.62 749
10.68 748
10.74 726
10.8 743
10.86 692
10.92 767
10.98 721
11.04 731
11.1 702
11.16 748
11.22 770
11.28 780
11.34 767
11.4 771
11.46 740
11.52 790
11.58 765
11.64 794
11.7 753
11.76 773
11.82 806
11.88 769
11.94 810
12 753
12.06 817
12.12 780
12.18 733
12.24 757
12.3 800
12.36 780
12.42 749
12.48 795
12.54 773
12.6 833
12.66 789
12.72 809
12.78 809
12.84 790
12.9 759
12.96 822
13.02 824
13.08 850
13.14 829
13.2 839
13.26 825
13.32 776
13.38 805
13.44 886
13.5 867
13.56 795
13.62 815
13.68 845
13.74 828
13.8 898
13.86 891
13.92 815
13.98 899
14.04 882
14.1 912
14.16 869
14.22 859
14.28 890
14.34 915
14.4 888
14.46 945
14.52 961
14.58 934
14.64 984
14.7 950
14.76 965
14.82 979
14.88 976
14.94 963
15 990
15.06 1006
15.12 1010
15.18 995
15.24 983
15.3 1063
15.36 1067
15.42 1052
15.48 1030
15.54 1081
15.6 1145
15.66 1134
15.72 1125
15.78 1111
15.84 1094
15.9 1180
15.96 1173
16.02 1205
16.08 1181
16.14 1190
16.2 1196
16.26 1178
16.32 1236
16.38 1284
16.44 1290
16.5 1255
16.56 1317
16.62 1262
16.68 1363
16.74 1403
16.8 1358
16.86 1415
16.92 1399
16.98 1501
17.04 1471
17.1 1463
17.16 1472
17.22 1475
17.28 1513
17.34 1527
17.4 1495
17.46 1522
17.52 1596
17.58 1573
17.64 1559
17.7 1621
17.76 1564
17.82 1701
17.88 1687
17.94 1689
18 1679
18.06 1722
18.12 1722
18.18 1723
18.24 1822
18.3 1781
18.36 1813
18.42 1759
18.48 1769
18.54 1800
18.6 1904
18.66 1906
18.72 1922
18.78 1861
18.84 1958
18.9 1880
18.96 1924
19.02 1976
19.08 1903
19.14 2020
19.2 2003
19.26 1969
19.32 1927
19.38 2017
19.44 1928
19.5 2031
19.56 2043
19.62 2005
19.68 2000
19.74 2010
19.8 2069
19.86 2021
19.92 2068
19.98 2079
20 2033