File: xrd-UiO-67/pxrddata/7-29.ASC
3 1971
3.06 1635
3.12 1415
3.18 1319
3.24 1294
3.3 1278
3.36 1230
3.42 1176
3.48 1132
3.54 1168
3.6 1040
3.66 1045
3.72 1027
3.78 984
3.84 990
3.9 989
3.96 994
4.02 928
4.08 901
4.14 941
4.2 914
4.26 839
4.32 873
4.38 840
4.44 848
4.5 797
4.56 864
4.62 859
4.68 820
4.74 933
4.8 887
4.86 869
4.92 914
4.98 931
5.04 958
5.1 938
5.16 987
5.22 1061
5.28 1120
5.34 1248
5.4 1306
5.46 1369
5.52 1564
5.58 1608
5.64 1677
5.7 1711
5.76 1783
5.82 1754
5.88 1647
5.94 1572
6 1414
6.06 1375
6.12 1141
6.18 1103
6.24 1019
6.3 998
6.36 934
6.42 961
6.48 934
6.54 940
6.6 920
6.66 934
6.72 889
6.78 860
6.84 801
6.9 788
6.96 717
7.02 744
7.08 752
7.14 672
7.2 705
7.26 694
7.32 684
7.38 704
7.44 642
7.5 663
7.56 663
7.62 661
7.68 679
7.74 661
7.8 609
7.86 682
7.92 663
7.98 679
8.04 628
8.1 632
8.16 620
8.22 665
8.28 626
8.34 625
8.4 682
8.46 646
8.52 653
8.58 664
8.64 669
8.7 705
8.76 645
8.82 680
8.88 678
8.94 654
9 704
9.06 683
9.12 746
9.18 781
9.24 820
9.3 852
9.36 848
9.42 870
9.48 880
9.54 868
9.6 840
9.66 770
9.72 760
9.78 714
9.84 666
9.9 710
9.96 666
10.02 711
10.08 742
10.14 666
10.2 668
10.26 783
10.32 757
10.38 709
10.44 694
10.5 733
10.56 685
10.62 726
10.68 726
10.74 727
10.8 757
10.86 811
10.92 794
10.98 804
11.04 850
11.1 797
11.16 838
11.22 752
11.28 754
11.34 758
11.4 755
11.46 743
11.52 745
11.58 744
11.64 722
11.7 726
11.76 702
11.82 695
11.88 670
11.94 685
12 609
12.06 668
12.12 687
12.18 707
12.24 678
12.3 674
12.36 682
12.42 672
12.48 701
12.54 654
12.6 665
12.66 668
12.72 652
12.78 643
12.84 671
12.9 656
12.96 656
13.02 735
13.08 681
13.14 661
13.2 691
13.26 710
13.32 708
13.38 725
13.44 672
13.5 746
13.56 707
13.62 708
13.68 730
13.74 761
13.8 760
13.86 741
13.92 741
13.98 704
14.04 752
14.1 744
14.16 741
14.22 862
14.28 775
14.34 846
14.4 809
14.46 806
14.52 824
14.58 777
14.64 827
14.7 879
14.76 833
14.82 859
14.88 820
14.94 845
15 824
15.06 863
15.12 869
15.18 861
15.24 833
15.3 838
15.36 839
15.42 917
15.48 895
15.54 866
15.6 900
15.66 906
15.72 886
15.78 920
15.84 949
15.9 945
15.96 961
16.02 959
16.08 999
16.14 968
16.2 1045
16.26 1029
16.32 989
16.38 1056
16.44 1092
16.5 1091
16.56 1038
16.62 1066
16.68 1123
16.74 1079
16.8 1130
16.86 1127
16.92 1135
16.98 1199
17.04 1147
17.1 1101
17.16 1173
17.22 1143
17.28 1182
17.34 1196
17.4 1191
17.46 1292
17.52 1301
17.58 1245
17.64 1258
17.7 1258
17.76 1343
17.82 1308
17.88 1317
17.94 1356
18 1367
18.06 1377
18.12 1310
18.18 1343
18.24 1399
18.3 1418
18.36 1376
18.42 1467
18.48 1444
18.54 1432
18.6 1482
18.66 1469
18.72 1492
18.78 1505
18.84 1477
18.9 1532
18.96 1578
19.02 1584
19.08 1555
19.14 1604
19.2 1619
19.26 1602
19.32 1649
19.38 1620
19.44 1729
19.5 1722
19.56 1762
19.62 1725
19.68 1786
19.74 1842
19.8 1810
19.86 1755
19.92 1793
19.98 1791
20 1765