File: xrd-UiO-67/pxrddata/7-3.ASC
3 2283
3.06 1911
3.12 1810
3.18 1973
3.24 1926
3.3 1802
3.36 1740
3.42 1622
3.48 1594
3.54 1526
3.6 1457
3.66 1465
3.72 1294
3.78 1353
3.84 1298
3.9 1266
3.96 1202
4.02 1187
4.08 1208
4.14 1128
4.2 1107
4.26 1167
4.32 1026
4.38 1086
4.44 1023
4.5 1027
4.56 1061
4.62 981
4.68 966
4.74 986
4.8 943
4.86 953
4.92 922
4.98 958
5.04 932
5.1 854
5.16 902
5.22 890
5.28 867
5.34 884
5.4 888
5.46 889
5.52 840
5.58 865
5.64 844
5.7 843
5.76 906
5.82 875
5.88 862
5.94 793
6 848
6.06 864
6.12 822
6.18 815
6.24 860
6.3 801
6.36 819
6.42 831
6.48 866
6.54 798
6.6 851
6.66 812
6.72 787
6.78 835
6.84 849
6.9 817
6.96 811
7.02 801
7.08 852
7.14 794
7.2 799
7.26 805
7.32 801
7.38 793
7.44 844
7.5 862
7.56 836
7.62 793
7.68 826
7.74 814
7.8 845
7.86 833
7.92 827
7.98 837
8.04 845
8.1 781
8.16 810
8.22 827
8.28 858
8.34 772
8.4 793
8.46 809
8.52 771
8.58 749
8.64 775
8.7 811
8.76 796
8.82 824
8.88 781
8.94 797
9 766
9.06 805
9.12 783
9.18 756
9.24 798
9.3 790
9.36 801
9.42 804
9.48 763
9.54 753
9.6 777
9.66 830
9.72 729
9.78 786
9.84 798
9.9 738
9.96 754
10.02 755
10.08 763
10.14 781
10.2 827
10.26 756
10.32 779
10.38 773
10.44 793
10.5 780
10.56 804
10.62 802
10.68 782
10.74 787
10.8 723
10.86 790
10.92 733
10.98 754
11.04 778
11.1 762
11.16 773
11.22 810
11.28 801
11.34 716
11.4 793
11.46 758
11.52 795
11.58 809
11.64 821
11.7 783
11.76 741
11.82 778
11.88 776
11.94 762
12 820
12.06 803
12.12 779
12.18 797
12.24 820
12.3 805
12.36 776
12.42 762
12.48 801
12.54 736
12.6 734
12.66 798
12.72 799
12.78 811
12.84 776
12.9 792
12.96 817
13.02 801
13.08 799
13.14 810
13.2 814
13.26 855
13.32 854
13.38 842
13.44 783
13.5 804
13.56 786
13.62 765
13.68 781
13.74 810
13.8 865
13.86 836
13.92 835
13.98 825
14.04 802
14.1 823
14.16 816
14.22 827
14.28 799
14.34 862
14.4 907
14.46 818
14.52 916
14.58 852
14.64 855
14.7 896
14.76 826
14.82 826
14.88 886
14.94 910
15 875
15.06 904
15.12 896
15.18 922
15.24 911
15.3 913
15.36 890
15.42 899
15.48 942
15.54 959
15.6 937
15.66 919
15.72 980
15.78 909
15.84 993
15.9 948
15.96 957
16.02 983
16.08 991
16.14 946
16.2 1026
16.26 1045
16.32 1000
16.38 1007
16.44 1081
16.5 1010
16.56 1069
16.62 1061
16.68 1104
16.74 1157
16.8 1262
16.86 1376
16.92 1625
16.98 2144
17.04 2426
17.1 1896
17.16 1419
17.22 1256
17.28 1201
17.34 1202
17.4 1190
17.46 1163
17.52 1152
17.58 1200
17.64 1185
17.7 1166
17.76 1257
17.82 1221
17.88 1246
17.94 1246
18 1211
18.06 1204
18.12 1304
18.18 1262
18.24 1323
18.3 1255
18.36 1308
18.42 1339
18.48 1313
18.54 1304
18.6 1329
18.66 1303
18.72 1359
18.78 1379
18.84 1345
18.9 1342
18.96 1335
19.02 1348
19.08 1468
19.14 1381
19.2 1471
19.26 1396
19.32 1484
19.38 1457
19.44 1474
19.5 1507
19.56 1432
19.62 1569
19.68 1410
19.74 1517
19.8 1507
19.86 1550
19.92 1557
19.98 1514
20 1578