File: xrd-UiO-67/pxrddata/7-30.ASC
3 2239
3.06 1871
3.12 1635
3.18 1544
3.24 1430
3.3 1385
3.36 1309
3.42 1313
3.48 1259
3.54 1235
3.6 1252
3.66 1160
3.72 1135
3.78 1063
3.84 1096
3.9 1075
3.96 983
4.02 982
4.08 989
4.14 936
4.2 915
4.26 962
4.32 895
4.38 837
4.44 847
4.5 828
4.56 878
4.62 803
4.68 826
4.74 836
4.8 884
4.86 859
4.92 874
4.98 823
5.04 872
5.1 963
5.16 1031
5.22 1063
5.28 1150
5.34 1203
5.4 1322
5.46 1370
5.52 1422
5.58 1441
5.64 1492
5.7 1452
5.76 1426
5.82 1252
5.88 1139
5.94 1038
6 936
6.06 856
6.12 828
6.18 831
6.24 737
6.3 752
6.36 766
6.42 761
6.48 767
6.54 730
6.6 731
6.66 763
6.72 786
6.78 701
6.84 720
6.9 750
6.96 738
7.02 737
7.08 751
7.14 724
7.2 697
7.26 710
7.32 701
7.38 676
7.44 708
7.5 728
7.56 690
7.62 695
7.68 650
7.74 704
7.8 691
7.86 664
7.92 675
7.98 627
8.04 677
8.1 686
8.16 653
8.22 628
8.28 677
8.34 615
8.4 680
8.46 655
8.52 655
8.58 629
8.64 631
8.7 636
8.76 619
8.82 617
8.88 689
8.94 699
9 692
9.06 676
9.12 724
9.18 733
9.24 839
9.3 869
9.36 879
9.42 790
9.48 775
9.54 714
9.6 682
9.66 648
9.72 689
9.78 604
9.84 639
9.9 618
9.96 649
10.02 599
10.08 642
10.14 684
10.2 611
10.26 627
10.32 642
10.38 591
10.44 632
10.5 628
10.56 618
10.62 639
10.68 673
10.74 720
10.8 715
10.86 732
10.92 722
10.98 745
11.04 697
11.1 703
11.16 675
11.22 668
11.28 633
11.34 612
11.4 640
11.46 623
11.52 610
11.58 610
11.64 592
11.7 624
11.76 611
11.82 649
11.88 590
11.94 615
12 623
12.06 630
12.12 617
12.18 617
12.24 612
12.3 622
12.36 613
12.42 625
12.48 654
12.54 595
12.6 592
12.66 613
12.72 586
12.78 607
12.84 650
12.9 607
12.96 624
13.02 657
13.08 583
13.14 621
13.2 606
13.26 639
13.32 630
13.38 615
13.44 649
13.5 609
13.56 635
13.62 687
13.68 652
13.74 671
13.8 656
13.86 696
13.92 659
13.98 655
14.04 673
14.1 646
14.16 649
14.22 719
14.28 705
14.34 649
14.4 734
14.46 715
14.52 679
14.58 682
14.64 677
14.7 691
14.76 695
14.82 759
14.88 698
14.94 653
15 698
15.06 731
15.12 758
15.18 732
15.24 766
15.3 786
15.36 698
15.42 738
15.48 751
15.54 756
15.6 760
15.66 806
15.72 773
15.78 777
15.84 770
15.9 790
15.96 821
16.02 777
16.08 776
16.14 810
16.2 850
16.26 854
16.32 830
16.38 819
16.44 913
16.5 919
16.56 870
16.62 852
16.68 882
16.74 861
16.8 892
16.86 895
16.92 919
16.98 909
17.04 898
17.1 921
17.16 919
17.22 917
17.28 932
17.34 936
17.4 952
17.46 973
17.52 1009
17.58 1011
17.64 1030
17.7 961
17.76 979
17.82 996
17.88 1028
17.94 1053
18 1026
18.06 1038
18.12 1003
18.18 1059
18.24 1053
18.3 1090
18.36 1092
18.42 1069
18.48 1114
18.54 1091
18.6 1136
18.66 1096
18.72 1208
18.78 1136
18.84 1146
18.9 1090
18.96 1173
19.02 1165
19.08 1126
19.14 1216
19.2 1209
19.26 1182
19.32 1197
19.38 1243
19.44 1276
19.5 1248
19.56 1287
19.62 1335
19.68 1278
19.74 1271
19.8 1276
19.86 1266
19.92 1287
19.98 1243
20 1213