File: xrd-UiO-67/pxrddata/7-31.ASC
3 2140
3.06 1687
3.12 1538
3.18 1420
3.24 1445
3.3 1322
3.36 1284
3.42 1277
3.48 1175
3.54 1188
3.6 1119
3.66 1064
3.72 1082
3.78 1092
3.84 999
3.9 962
3.96 932
4.02 951
4.08 998
4.14 908
4.2 908
4.26 911
4.32 835
4.38 833
4.44 806
4.5 812
4.56 776
4.62 787
4.68 775
4.74 760
4.8 762
4.86 699
4.92 710
4.98 749
5.04 735
5.1 713
5.16 693
5.22 679
5.28 691
5.34 757
5.4 675
5.46 686
5.52 734
5.58 681
5.64 697
5.7 667
5.76 661
5.82 673
5.88 752
5.94 664
6 663
6.06 654
6.12 661
6.18 671
6.24 696
6.3 637
6.36 652
6.42 710
6.48 677
6.54 694
6.6 666
6.66 685
6.72 691
6.78 675
6.84 700
6.9 683
6.96 643
7.02 702
7.08 700
7.14 683
7.2 676
7.26 671
7.32 683
7.38 641
7.44 682
7.5 660
7.56 651
7.62 672
7.68 684
7.74 619
7.8 674
7.86 720
7.92 686
7.98 624
8.04 599
8.1 666
8.16 664
8.22 633
8.28 669
8.34 654
8.4 642
8.46 635
8.52 637
8.58 661
8.64 660
8.7 622
8.76 643
8.82 660
8.88 653
8.94 627
9 616
9.06 634
9.12 627
9.18 645
9.24 641
9.3 632
9.36 646
9.42 627
9.48 625
9.54 639
9.6 633
9.66 618
9.72 628
9.78 606
9.84 673
9.9 636
9.96 655
10.02 649
10.08 621
10.14 621
10.2 577
10.26 641
10.32 616
10.38 610
10.44 592
10.5 614
10.56 647
10.62 580
10.68 644
10.74 583
10.8 639
10.86 643
10.92 651
10.98 611
11.04 646
11.1 598
11.16 640
11.22 616
11.28 646
11.34 605
11.4 611
11.46 625
11.52 634
11.58 609
11.64 622
11.7 657
11.76 642
11.82 639
11.88 661
11.94 628
12 601
12.06 640
12.12 614
12.18 628
12.24 629
12.3 675
12.36 629
12.42 701
12.48 666
12.54 620
12.6 628
12.66 655
12.72 666
12.78 672
12.84 636
12.9 643
12.96 686
13.02 632
13.08 670
13.14 728
13.2 655
13.26 707
13.32 721
13.38 743
13.44 700
13.5 714
13.56 724
13.62 715
13.68 675
13.74 721
13.8 721
13.86 692
13.92 736
13.98 654
14.04 734
14.1 730
14.16 767
14.22 673
14.28 687
14.34 724
14.4 787
14.46 742
14.52 767
14.58 743
14.64 787
14.7 759
14.76 822
14.82 794
14.88 797
14.94 780
15 798
15.06 790
15.12 804
15.18 809
15.24 805
15.3 797
15.36 840
15.42 833
15.48 858
15.54 878
15.6 832
15.66 877
15.72 890
15.78 865
15.84 877
15.9 864
15.96 839
16.02 892
16.08 897
16.14 896
16.2 893
16.26 927
16.32 892
16.38 906
16.44 943
16.5 987
16.56 1008
16.62 1018
16.68 1058
16.74 1110
16.8 1184
16.86 1406
16.92 1920
16.98 2799
17.04 3931
17.1 3381
17.16 1857
17.22 1234
17.28 1127
17.34 1095
17.4 1080
17.46 1074
17.52 1074
17.58 1129
17.64 1123
17.7 1167
17.76 1108
17.82 1110
17.88 1152
17.94 1194
18 1148
18.06 1142
18.12 1149
18.18 1148
18.24 1157
18.3 1200
18.36 1201
18.42 1171
18.48 1198
18.54 1183
18.6 1183
18.66 1251
18.72 1243
18.78 1205
18.84 1276
18.9 1282
18.96 1346
19.02 1340
19.08 1296
19.14 1297
19.2 1390
19.26 1360
19.32 1386
19.38 1366
19.44 1365
19.5 1401
19.56 1437
19.62 1418
19.68 1441
19.74 1485
19.8 1545
19.86 1506
19.92 1467
19.98 1493
20 1485