File: xrd-UiO-67/pxrddata/7-32.ASC
3 1927
3.06 1660
3.12 1440
3.18 1347
3.24 1298
3.3 1318
3.36 1207
3.42 1174
3.48 1189
3.54 1138
3.6 1052
3.66 1032
3.72 1015
3.78 989
3.84 938
3.9 951
3.96 925
4.02 881
4.08 872
4.14 878
4.2 776
4.26 856
4.32 809
4.38 753
4.44 793
4.5 798
4.56 726
4.62 764
4.68 712
4.74 769
4.8 718
4.86 727
4.92 693
4.98 679
5.04 715
5.1 671
5.16 703
5.22 709
5.28 662
5.34 689
5.4 702
5.46 694
5.52 728
5.58 672
5.64 683
5.7 754
5.76 638
5.82 672
5.88 707
5.94 674
6 639
6.06 678
6.12 650
6.18 686
6.24 671
6.3 674
6.36 652
6.42 632
6.48 633
6.54 639
6.6 625
6.66 641
6.72 643
6.78 718
6.84 734
6.9 645
6.96 692
7.02 685
7.08 738
7.14 715
7.2 665
7.26 629
7.32 695
7.38 694
7.44 673
7.5 690
7.56 655
7.62 667
7.68 700
7.74 673
7.8 703
7.86 651
7.92 644
7.98 701
8.04 691
8.1 684
8.16 713
8.22 684
8.28 704
8.34 645
8.4 695
8.46 686
8.52 706
8.58 639
8.64 661
8.7 658
8.76 690
8.82 677
8.88 660
8.94 644
9 676
9.06 674
9.12 639
9.18 634
9.24 666
9.3 666
9.36 696
9.42 674
9.48 681
9.54 735
9.6 677
9.66 688
9.72 679
9.78 713
9.84 623
9.9 677
9.96 712
10.02 688
10.08 650
10.14 682
10.2 654
10.26 693
10.32 687
10.38 685
10.44 634
10.5 682
10.56 688
10.62 682
10.68 665
10.74 707
10.8 692
10.86 696
10.92 683
10.98 684
11.04 696
11.1 683
11.16 712
11.22 666
11.28 682
11.34 634
11.4 702
11.46 690
11.52 699
11.58 675
11.64 702
11.7 665
11.76 650
11.82 659
11.88 700
11.94 701
12 739
12.06 708
12.12 698
12.18 720
12.24 694
12.3 732
12.36 680
12.42 684
12.48 695
12.54 689
12.6 713
12.66 729
12.72 753
12.78 703
12.84 719
12.9 750
12.96 750
13.02 695
13.08 710
13.14 734
13.2 772
13.26 751
13.32 769
13.38 784
13.44 785
13.5 744
13.56 742
13.62 750
13.68 768
13.74 728
13.8 746
13.86 776
13.92 764
13.98 777
14.04 743
14.1 789
14.16 811
14.22 760
14.28 778
14.34 779
14.4 789
14.46 833
14.52 786
14.58 775
14.64 795
14.7 791
14.76 824
14.82 813
14.88 861
14.94 794
15 821
15.06 799
15.12 845
15.18 821
15.24 859
15.3 879
15.36 897
15.42 973
15.48 863
15.54 819
15.6 851
15.66 859
15.72 934
15.78 904
15.84 925
15.9 908
15.96 914
16.02 911
16.08 920
16.14 928
16.2 946
16.26 978
16.32 975
16.38 944
16.44 957
16.5 955
16.56 1018
16.62 979
16.68 1092
16.74 1111
16.8 1255
16.86 1524
16.92 1990
16.98 3024
17.04 4357
17.1 4191
17.16 2121
17.22 1276
17.28 1204
17.34 1225
17.4 1285
17.46 1231
17.52 1145
17.58 1162
17.64 1168
17.7 1130
17.76 1158
17.82 1132
17.88 1164
17.94 1145
18 1165
18.06 1249
18.12 1208
18.18 1252
18.24 1232
18.3 1244
18.36 1218
18.42 1274
18.48 1313
18.54 1319
18.6 1279
18.66 1324
18.72 1274
18.78 1289
18.84 1307
18.9 1324
18.96 1310
19.02 1343
19.08 1385
19.14 1354
19.2 1440
19.26 1405
19.32 1392
19.38 1410
19.44 1393
19.5 1391
19.56 1465
19.62 1484
19.68 1551
19.74 1489
19.8 1457
19.86 1543
19.92 1504
19.98 1535
20 1528