File: xrd-UiO-67/pxrddata/7-33.ASC
3 2073
3.06 1717
3.12 1523
3.18 1332
3.24 1365
3.3 1379
3.36 1257
3.42 1303
3.48 1178
3.54 1175
3.6 1205
3.66 1108
3.72 1153
3.78 1123
3.84 1176
3.9 1108
3.96 1118
4.02 1087
4.08 1096
4.14 1128
4.2 1035
4.26 1084
4.32 1098
4.38 1132
4.44 1151
4.5 1108
4.56 1156
4.62 1124
4.68 1140
4.74 1202
4.8 1193
4.86 1306
4.92 1254
4.98 1280
5.04 1304
5.1 1318
5.16 1358
5.22 1339
5.28 1364
5.34 1358
5.4 1375
5.46 1440
5.52 1447
5.58 1406
5.64 1429
5.7 1463
5.76 1495
5.82 1376
5.88 1451
5.94 1488
6 1426
6.06 1373
6.12 1417
6.18 1346
6.24 1328
6.3 1350
6.36 1364
6.42 1320
6.48 1176
6.54 1251
6.6 1225
6.66 1215
6.72 1208
6.78 1137
6.84 1134
6.9 1056
6.96 1017
7.02 1022
7.08 995
7.14 983
7.2 967
7.26 909
7.32 964
7.38 951
7.44 918
7.5 955
7.56 896
7.62 901
7.68 805
7.74 888
7.8 830
7.86 806
7.92 814
7.98 884
8.04 820
8.1 806
8.16 875
8.22 834
8.28 827
8.34 801
8.4 804
8.46 782
8.52 784
8.58 832
8.64 779
8.7 764
8.76 801
8.82 758
8.88 808
8.94 795
9 812
9.06 749
9.12 781
9.18 757
9.24 740
9.3 750
9.36 810
9.42 761
9.48 768
9.54 768
9.6 802
9.66 797
9.72 833
9.78 795
9.84 807
9.9 784
9.96 792
10.02 823
10.08 889
10.14 830
10.2 847
10.26 836
10.32 801
10.38 808
10.44 806
10.5 850
10.56 809
10.62 797
10.68 840
10.74 869
10.8 864
10.86 849
10.92 819
10.98 823
11.04 836
11.1 893
11.16 840
11.22 867
11.28 835
11.34 870
11.4 854
11.46 860
11.52 900
11.58 839
11.64 839
11.7 863
11.76 899
11.82 838
11.88 922
11.94 896
12 856
12.06 851
12.12 889
12.18 867
12.24 868
12.3 889
12.36 888
12.42 851
12.48 876
12.54 941
12.6 929
12.66 860
12.72 891
12.78 931
12.84 847
12.9 881
12.96 842
13.02 919
13.08 872
13.14 876
13.2 899
13.26 864
13.32 898
13.38 908
13.44 899
13.5 893
13.56 927
13.62 833
13.68 895
13.74 932
13.8 905
13.86 878
13.92 997
13.98 884
14.04 973
14.1 925
14.16 983
14.22 948
14.28 989
14.34 987
14.4 943
14.46 955
14.52 1018
14.58 934
14.64 1008
14.7 981
14.76 984
14.82 1038
14.88 1032
14.94 1046
15 1036
15.06 1110
15.12 1097
15.18 1061
15.24 1030
15.3 1068
15.36 1094
15.42 1072
15.48 1153
15.54 1078
15.6 1122
15.66 1117
15.72 1167
15.78 1129
15.84 1175
15.9 1144
15.96 1164
16.02 1225
16.08 1213
16.14 1220
16.2 1257
16.26 1232
16.32 1235
16.38 1274
16.44 1310
16.5 1308
16.56 1196
16.62 1302
16.68 1301
16.74 1336
16.8 1341
16.86 1345
16.92 1317
16.98 1425
17.04 1386
17.1 1402
17.16 1452
17.22 1416
17.28 1378
17.34 1384
17.4 1502
17.46 1451
17.52 1498
17.58 1522
17.64 1509
17.7 1558
17.76 1509
17.82 1555
17.88 1482
17.94 1546
18 1536
18.06 1634
18.12 1613
18.18 1626
18.24 1591
18.3 1686
18.36 1609
18.42 1633
18.48 1550
18.54 1635
18.6 1675
18.66 1765
18.72 1716
18.78 1716
18.84 1720
18.9 1789
18.96 1671
19.02 1761
19.08 1750
19.14 1760
19.2 1662
19.26 1739
19.32 1673
19.38 1761
19.44 1668
19.5 1730
19.56 1726
19.62 1722
19.68 1732
19.74 1772
19.8 1767
19.86 1754
19.92 1818
19.98 1742
20 1750