File: xrd-UiO-67/pxrddata/7-34.ASC
3 1768
3.06 1358
3.12 1239
3.18 1217
3.24 1050
3.3 1102
3.36 1053
3.42 1009
3.48 970
3.54 954
3.6 972
3.66 939
3.72 892
3.78 879
3.84 824
3.9 862
3.96 862
4.02 830
4.08 763
4.14 789
4.2 748
4.26 748
4.32 784
4.38 684
4.44 760
4.5 681
4.56 682
4.62 660
4.68 652
4.74 678
4.8 667
4.86 716
4.92 665
4.98 664
5.04 673
5.1 712
5.16 718
5.22 729
5.28 748
5.34 797
5.4 881
5.46 905
5.52 944
5.58 1006
5.64 1084
5.7 1092
5.76 1123
5.82 1203
5.88 1130
5.94 1156
6 1115
6.06 1065
6.12 934
6.18 917
6.24 896
6.3 818
6.36 811
6.42 781
6.48 730
6.54 750
6.6 727
6.66 724
6.72 735
6.78 682
6.84 738
6.9 702
6.96 701
7.02 723
7.08 701
7.14 701
7.2 756
7.26 704
7.32 710
7.38 701
7.44 723
7.5 759
7.56 685
7.62 676
7.68 718
7.74 693
7.8 657
7.86 635
7.92 647
7.98 632
8.04 637
8.1 600
8.16 600
8.22 569
8.28 571
8.34 576
8.4 541
8.46 565
8.52 540
8.58 577
8.64 579
8.7 535
8.76 534
8.82 519
8.88 541
8.94 538
9 514
9.06 509
9.12 522
9.18 559
9.24 552
9.3 546
9.36 558
9.42 524
9.48 579
9.54 589
9.6 641
9.66 602
9.72 615
9.78 542
9.84 496
9.9 457
9.96 508
10.02 487
10.08 478
10.14 481
10.2 484
10.26 527
10.32 482
10.38 541
10.44 503
10.5 480
10.56 522
10.62 481
10.68 446
10.74 483
10.8 510
10.86 525
10.92 541
10.98 495
11.04 502
11.1 551
11.16 529
11.22 568
11.28 521
11.34 469
11.4 529
11.46 555
11.52 496
11.58 481
11.64 518
11.7 494
11.76 501
11.82 509
11.88 478
11.94 485
12 482
12.06 491
12.12 490
12.18 466
12.24 465
12.3 492
12.36 486
12.42 501
12.48 494
12.54 457
12.6 466
12.66 451
12.72 489
12.78 448
12.84 477
12.9 498
12.96 461
13.02 506
13.08 479
13.14 450
13.2 467
13.26 460
13.32 446
13.38 450
13.44 464
13.5 441
13.56 475
13.62 463
13.68 465
13.74 497
13.8 477
13.86 475
13.92 501
13.98 496
14.04 517
14.1 507
14.16 497
14.22 474
14.28 487
14.34 519
14.4 521
14.46 516
14.52 535
14.58 482
14.64 531
14.7 541
14.76 518
14.82 477
14.88 538
14.94 536
15 492
15.06 503
15.12 535
15.18 567
15.24 580
15.3 525
15.36 548
15.42 533
15.48 575
15.54 499
15.6 530
15.66 551
15.72 542
15.78 523
15.84 597
15.9 568
15.96 583
16.02 610
16.08 596
16.14 544
16.2 589
16.26 597
16.32 584
16.38 588
16.44 619
16.5 584
16.56 624
16.62 591
16.68 644
16.74 595
16.8 630
16.86 631
16.92 633
16.98 665
17.04 712
17.1 674
17.16 686
17.22 733
17.28 692
17.34 668
17.4 668
17.46 731
17.52 733
17.58 731
17.64 691
17.7 745
17.76 763
17.82 752
17.88 770
17.94 750
18 737
18.06 767
18.12 724
18.18 728
18.24 735
18.3 797
18.36 755
18.42 829
18.48 831
18.54 810
18.6 819
18.66 795
18.72 742
18.78 829
18.84 831
18.9 858
18.96 857
19.02 894
19.08 852
19.14 905
19.2 912
19.26 849
19.32 934
19.38 917
19.44 902
19.5 937
19.56 910
19.62 918
19.68 919
19.74 966
19.8 947
19.86 956
19.92 952
19.98 939
20 959