File: xrd-UiO-67/pxrddata/7-37.ASC
3 1876
3.06 1495
3.12 1281
3.18 1243
3.24 1160
3.3 1039
3.36 1048
3.42 1021
3.48 986
3.54 959
3.6 890
3.66 958
3.72 902
3.78 856
3.84 779
3.9 817
3.96 766
4.02 747
4.08 717
4.14 758
4.2 699
4.26 688
4.32 608
4.38 665
4.44 653
4.5 654
4.56 606
4.62 594
4.68 599
4.74 596
4.8 535
4.86 539
4.92 551
4.98 534
5.04 535
5.1 533
5.16 496
5.22 484
5.28 539
5.34 518
5.4 498
5.46 520
5.52 533
5.58 503
5.64 521
5.7 516
5.76 511
5.82 487
5.88 475
5.94 493
6 491
6.06 460
6.12 460
6.18 470
6.24 494
6.3 482
6.36 502
6.42 472
6.48 471
6.54 508
6.6 461
6.66 483
6.72 441
6.78 470
6.84 469
6.9 486
6.96 486
7.02 499
7.08 471
7.14 485
7.2 507
7.26 465
7.32 459
7.38 477
7.44 488
7.5 470
7.56 459
7.62 487
7.68 446
7.74 437
7.8 501
7.86 441
7.92 482
7.98 478
8.04 450
8.1 451
8.16 446
8.22 443
8.28 453
8.34 467
8.4 443
8.46 470
8.52 472
8.58 468
8.64 482
8.7 493
8.76 500
8.82 490
8.88 548
8.94 627
9 644
9.06 722
9.12 835
9.18 985
9.24 1161
9.3 1163
9.36 994
9.42 829
9.48 719
9.54 568
9.6 535
9.66 505
9.72 542
9.78 523
9.84 554
9.9 579
9.96 659
10.02 724
10.08 783
10.14 811
10.2 759
10.26 618
10.32 548
10.38 461
10.44 470
10.5 425
10.56 419
10.62 428
10.68 418
10.74 393
10.8 426
10.86 389
10.92 404
10.98 400
11.04 367
11.1 382
11.16 419
11.22 433
11.28 417
11.34 418
11.4 428
11.46 464
11.52 432
11.58 408
11.64 356
11.7 429
11.76 372
11.82 445
11.88 374
11.94 392
12 385
12.06 386
12.12 383
12.18 411
12.24 412
12.3 405
12.36 403
12.42 368
12.48 398
12.54 409
12.6 416
12.66 428
12.72 462
12.78 474
12.84 539
12.9 471
12.96 472
13.02 414
13.08 396
13.14 406
13.2 442
13.26 420
13.32 414
13.38 399
13.44 420
13.5 438
13.56 403
13.62 434
13.68 402
13.74 413
13.8 366
13.86 391
13.92 442
13.98 365
14.04 389
14.1 406
14.16 381
14.22 384
14.28 414
14.34 424
14.4 458
14.46 443
14.52 415
14.58 383
14.64 386
14.7 398
14.76 390
14.82 405
14.88 411
14.94 406
15 429
15.06 380
15.12 389
15.18 426
15.24 414
15.3 403
15.36 409
15.42 392
15.48 416
15.54 412
15.6 420
15.66 402
15.72 425
15.78 448
15.84 426
15.9 423
15.96 433
16.02 414
16.08 432
16.14 436
16.2 433
16.26 451
16.32 428
16.38 436
16.44 440
16.5 406
16.56 430
16.62 505
16.68 436
16.74 488
16.8 486
16.86 464
16.92 538
16.98 563
17.04 579
17.1 552
17.16 547
17.22 550
17.28 511
17.34 488
17.4 439
17.46 463
17.52 453
17.58 502
17.64 494
17.7 455
17.76 467
17.82 477
17.88 483
17.94 489
18 494
18.06 466
18.12 534
18.18 491
18.24 498
18.3 510
18.36 573
18.42 596
18.48 563
18.54 584
18.6 651
18.66 560
18.72 498
18.78 541
18.84 548
18.9 557
18.96 576
19.02 542
19.08 523
19.14 556
19.2 570
19.26 554
19.32 528
19.38 520
19.44 525
19.5 560
19.56 584
19.62 576
19.68 606
19.74 584
19.8 602
19.86 602
19.92 672
19.98 633
20 641