File: xrd-UiO-67/pxrddata/7-38.ASC
3 2391
3.06 2084
3.12 1849
3.18 1771
3.24 1688
3.3 1615
3.36 1608
3.42 1599
3.48 1593
3.54 1532
3.6 1453
3.66 1485
3.72 1504
3.78 1469
3.84 1400
3.9 1424
3.96 1472
4.02 1338
4.08 1383
4.14 1358
4.2 1326
4.26 1338
4.32 1367
4.38 1279
4.44 1327
4.5 1337
4.56 1303
4.62 1291
4.68 1354
4.74 1267
4.8 1305
4.86 1241
4.92 1285
4.98 1368
5.04 1384
5.1 1392
5.16 1412
5.22 1441
5.28 1533
5.34 1645
5.4 1675
5.46 1665
5.52 1824
5.58 1796
5.64 1868
5.7 1816
5.76 1768
5.82 1651
5.88 1555
5.94 1409
6 1355
6.06 1297
6.12 1169
6.18 1140
6.24 1145
6.3 1098
6.36 1088
6.42 1146
6.48 1095
6.54 1085
6.6 1032
6.66 1081
6.72 1057
6.78 1045
6.84 1026
6.9 1001
6.96 991
7.02 1015
7.08 924
7.14 948
7.2 911
7.26 949
7.32 915
7.38 925
7.44 880
7.5 948
7.56 848
7.62 885
7.68 866
7.74 885
7.8 813
7.86 885
7.92 823
7.98 809
8.04 787
8.1 825
8.16 828
8.22 865
8.28 809
8.34 815
8.4 819
8.46 812
8.52 753
8.58 798
8.64 805
8.7 832
8.76 826
8.82 825
8.88 849
8.94 756
9 810
9.06 819
9.12 872
9.18 939
9.24 926
9.3 978
9.36 928
9.42 905
9.48 803
9.54 847
9.6 764
9.66 797
9.72 771
9.78 811
9.84 805
9.9 787
9.96 797
10.02 774
10.08 833
10.14 748
10.2 824
10.26 773
10.32 775
10.38 805
10.44 792
10.5 733
10.56 790
10.62 774
10.68 783
10.74 840
10.8 811
10.86 864
10.92 840
10.98 867
11.04 905
11.1 754
11.16 845
11.22 784
11.28 795
11.34 773
11.4 765
11.46 790
11.52 750
11.58 733
11.64 771
11.7 713
11.76 771
11.82 720
11.88 775
11.94 709
12 767
12.06 719
12.12 759
12.18 773
12.24 720
12.3 724
12.36 722
12.42 745
12.48 771
12.54 747
12.6 759
12.66 693
12.72 722
12.78 678
12.84 718
12.9 725
12.96 747
13.02 785
13.08 699
13.14 689
13.2 733
13.26 749
13.32 764
13.38 766
13.44 782
13.5 736
13.56 759
13.62 756
13.68 747
13.74 754
13.8 726
13.86 786
13.92 767
13.98 770
14.04 792
14.1 718
14.16 771
14.22 817
14.28 796
14.34 804
14.4 822
14.46 826
14.52 814
14.58 838
14.64 756
14.7 821
14.76 820
14.82 834
14.88 811
14.94 833
15 854
15.06 839
15.12 857
15.18 808
15.24 860
15.3 896
15.36 854
15.42 845
15.48 873
15.54 873
15.6 889
15.66 872
15.72 933
15.78 899
15.84 904
15.9 883
15.96 900
16.02 943
16.08 968
16.14 895
16.2 971
16.26 990
16.32 912
16.38 1008
16.44 989
16.5 1027
16.56 979
16.62 965
16.68 1029
16.74 1011
16.8 1073
16.86 1022
16.92 1022
16.98 1061
17.04 1033
17.1 989
17.16 1044
17.22 1058
17.28 1060
17.34 1147
17.4 1089
17.46 1057
17.52 1089
17.58 1067
17.64 1151
17.7 1142
17.76 1181
17.82 1146
17.88 1138
17.94 1199
18 1161
18.06 1242
18.12 1181
18.18 1231
18.24 1145
18.3 1199
18.36 1144
18.42 1209
18.48 1290
18.54 1164
18.6 1343
18.66 1246
18.72 1290
18.78 1343
18.84 1282
18.9 1233
18.96 1314
19.02 1336
19.08 1342
19.14 1368
19.2 1331
19.26 1335
19.32 1354
19.38 1386
19.44 1380
19.5 1452
19.56 1406
19.62 1423
19.68 1409
19.74 1450
19.8 1382
19.86 1362
19.92 1417
19.98 1433
20 1451