File: xrd-UiO-67/pxrddata/7-39.ASC
3 1989
3.06 1722
3.12 1530
3.18 1432
3.24 1346
3.3 1307
3.36 1290
3.42 1256
3.48 1198
3.54 1194
3.6 1150
3.66 1060
3.72 1093
3.78 991
3.84 1020
3.9 1025
3.96 1023
4.02 962
4.08 909
4.14 934
4.2 901
4.26 848
4.32 869
4.38 854
4.44 855
4.5 869
4.56 839
4.62 811
4.68 823
4.74 813
4.8 831
4.86 852
4.92 810
4.98 873
5.04 908
5.1 911
5.16 1015
5.22 985
5.28 1095
5.34 1152
5.4 1193
5.46 1290
5.52 1390
5.58 1378
5.64 1413
5.7 1494
5.76 1563
5.82 1482
5.88 1433
5.94 1252
6 1051
6.06 972
6.12 919
6.18 797
6.24 824
6.3 793
6.36 801
6.42 753
6.48 859
6.54 798
6.6 780
6.66 799
6.72 779
6.78 713
6.84 721
6.9 794
6.96 703
7.02 724
7.08 680
7.14 713
7.2 681
7.26 690
7.32 651
7.38 619
7.44 678
7.5 672
7.56 637
7.62 664
7.68 656
7.74 635
7.8 637
7.86 596
7.92 630
7.98 608
8.04 557
8.1 596
8.16 556
8.22 608
8.28 611
8.34 592
8.4 620
8.46 552
8.52 556
8.58 624
8.64 608
8.7 538
8.76 565
8.82 604
8.88 649
8.94 634
9 679
9.06 729
9.12 786
9.18 878
9.24 1467
9.3 1901
9.36 1110
9.42 948
9.48 809
9.54 734
9.6 649
9.66 644
9.72 649
9.78 635
9.84 600
9.9 621
9.96 621
10.02 639
10.08 567
10.14 621
10.2 625
10.26 592
10.32 611
10.38 591
10.44 576
10.5 597
10.56 595
10.62 636
10.68 659
10.74 690
10.8 711
10.86 721
10.92 722
10.98 742
11.04 741
11.1 706
11.16 693
11.22 641
11.28 625
11.34 612
11.4 630
11.46 664
11.52 626
11.58 592
11.64 552
11.7 577
11.76 579
11.82 630
11.88 565
11.94 553
12 541
12.06 568
12.12 542
12.18 536
12.24 566
12.3 576
12.36 556
12.42 569
12.48 561
12.54 541
12.6 560
12.66 517
12.72 543
12.78 545
12.84 531
12.9 555
12.96 508
13.02 521
13.08 551
13.14 555
13.2 497
13.26 574
13.32 569
13.38 531
13.44 533
13.5 566
13.56 572
13.62 556
13.68 528
13.74 534
13.8 577
13.86 563
13.92 553
13.98 577
14.04 628
14.1 545
14.16 586
14.22 619
14.28 566
14.34 628
14.4 649
14.46 586
14.52 642
14.58 675
14.64 608
14.7 600
14.76 603
14.82 626
14.88 605
14.94 637
15 633
15.06 603
15.12 625
15.18 624
15.24 593
15.3 607
15.36 598
15.42 609
15.48 636
15.54 646
15.6 623
15.66 619
15.72 630
15.78 608
15.84 638
15.9 617
15.96 701
16.02 623
16.08 646
16.14 669
16.2 677
16.26 666
16.32 702
16.38 656
16.44 616
16.5 722
16.56 662
16.62 686
16.68 718
16.74 771
16.8 708
16.86 753
16.92 703
16.98 768
17.04 777
17.1 746
17.16 783
17.22 783
17.28 818
17.34 819
17.4 762
17.46 819
17.52 809
17.58 791
17.64 766
17.7 850
17.76 780
17.82 789
17.88 836
17.94 800
18 817
18.06 848
18.12 838
18.18 818
18.24 805
18.3 806
18.36 841
18.42 893
18.48 883
18.54 894
18.6 878
18.66 878
18.72 932
18.78 901
18.84 952
18.9 926
18.96 917
19.02 951
19.08 977
19.14 977
19.2 1017
19.26 1040
19.32 1010
19.38 1073
19.44 1128
19.5 1092
19.56 1124
19.62 1126
19.68 1103
19.74 1071
19.8 1131
19.86 1102
19.92 1078
19.98 1076
20 1043