File: xrd-UiO-67/pxrddata/7-4.ASC
3 1703
3.06 1338
3.12 1165
3.18 1093
3.24 1112
3.3 1021
3.36 1036
3.42 1039
3.48 984
3.54 1076
3.6 1008
3.66 902
3.72 944
3.78 903
3.84 882
3.9 902
3.96 926
4.02 914
4.08 869
4.14 902
4.2 870
4.26 823
4.32 901
4.38 883
4.44 881
4.5 878
4.56 853
4.62 803
4.68 848
4.74 861
4.8 869
4.86 859
4.92 874
4.98 858
5.04 986
5.1 897
5.16 938
5.22 930
5.28 987
5.34 1004
5.4 1068
5.46 1058
5.52 1067
5.58 1127
5.64 1144
5.7 1147
5.76 1228
5.82 1260
5.88 1292
5.94 1256
6 1227
6.06 1139
6.12 1049
6.18 979
6.24 935
6.3 889
6.36 847
6.42 773
6.48 776
6.54 767
6.6 781
6.66 738
6.72 794
6.78 721
6.84 765
6.9 715
6.96 683
7.02 669
7.08 680
7.14 727
7.2 673
7.26 681
7.32 577
7.38 645
7.44 621
7.5 643
7.56 603
7.62 607
7.68 649
7.74 636
7.8 591
7.86 583
7.92 567
7.98 579
8.04 600
8.1 622
8.16 596
8.22 573
8.28 601
8.34 575
8.4 616
8.46 573
8.52 592
8.58 597
8.64 631
8.7 574
8.76 607
8.82 622
8.88 601
8.94 582
9 607
9.06 582
9.12 607
9.18 574
9.24 611
9.3 639
9.36 572
9.42 628
9.48 637
9.54 708
9.6 643
9.66 684
9.72 691
9.78 658
9.84 622
9.9 608
9.96 560
10.02 620
10.08 606
10.14 586
10.2 594
10.26 601
10.32 603
10.38 598
10.44 609
10.5 608
10.56 626
10.62 585
10.68 548
10.74 622
10.8 609
10.86 633
10.92 568
10.98 613
11.04 618
11.1 658
11.16 598
11.22 628
11.28 635
11.34 578
11.4 589
11.46 566
11.52 602
11.58 582
11.64 604
11.7 587
11.76 571
11.82 545
11.88 565
11.94 561
12 592
12.06 569
12.12 545
12.18 597
12.24 553
12.3 569
12.36 578
12.42 550
12.48 574
12.54 551
12.6 569
12.66 550
12.72 537
12.78 549
12.84 545
12.9 561
12.96 551
13.02 596
13.08 576
13.14 513
13.2 525
13.26 517
13.32 630
13.38 587
13.44 578
13.5 616
13.56 573
13.62 548
13.68 571
13.74 564
13.8 542
13.86 617
13.92 581
13.98 587
14.04 645
14.1 587
14.16 556
14.22 583
14.28 581
14.34 605
14.4 618
14.46 641
14.52 601
14.58 641
14.64 664
14.7 612
14.76 661
14.82 624
14.88 658
14.94 623
15 656
15.06 643
15.12 621
15.18 643
15.24 702
15.3 641
15.36 655
15.42 708
15.48 678
15.54 643
15.6 675
15.66 698
15.72 702
15.78 709
15.84 722
15.9 678
15.96 697
16.02 698
16.08 740
16.14 723
16.2 748
16.26 748
16.32 783
16.38 736
16.44 769
16.5 772
16.56 744
16.62 759
16.68 803
16.74 784
16.8 781
16.86 831
16.92 774
16.98 838
17.04 855
17.1 840
17.16 847
17.22 1003
17.28 1051
17.34 969
17.4 868
17.46 869
17.52 942
17.58 911
17.64 902
17.7 930
17.76 866
17.82 957
17.88 966
17.94 883
18 980
18.06 904
18.12 918
18.18 971
18.24 985
18.3 996
18.36 1005
18.42 1003
18.48 985
18.54 1034
18.6 991
18.66 1040
18.72 1007
18.78 1047
18.84 1088
18.9 1070
18.96 1061
19.02 1086
19.08 1096
19.14 1118
19.2 1146
19.26 1089
19.32 1106
19.38 1207
19.44 1198
19.5 1219
19.56 1168
19.62 1189
19.68 1248
19.74 1286
19.8 1269
19.86 1274
19.92 1215
19.98 1272
20 1251