File: xrd-UiO-67/pxrddata/7-6.ASC
3 2118
3.06 1705
3.12 1427
3.18 1399
3.24 1352
3.3 1313
3.36 1305
3.42 1283
3.48 1221
3.54 1191
3.6 1193
3.66 1161
3.72 1150
3.78 1107
3.84 1083
3.9 1021
3.96 1065
4.02 973
4.08 1003
4.14 980
4.2 941
4.26 938
4.32 886
4.38 950
4.44 952
4.5 842
4.56 859
4.62 871
4.68 855
4.74 836
4.8 838
4.86 865
4.92 766
4.98 811
5.04 803
5.1 770
5.16 806
5.22 804
5.28 757
5.34 789
5.4 765
5.46 780
5.52 763
5.58 817
5.64 801
5.7 828
5.76 822
5.82 763
5.88 780
5.94 802
6 780
6.06 754
6.12 752
6.18 806
6.24 766
6.3 787
6.36 786
6.42 791
6.48 745
6.54 721
6.6 766
6.66 742
6.72 750
6.78 805
6.84 794
6.9 767
6.96 758
7.02 727
7.08 744
7.14 737
7.2 722
7.26 757
7.32 724
7.38 771
7.44 738
7.5 740
7.56 794
7.62 780
7.68 722
7.74 749
7.8 761
7.86 782
7.92 761
7.98 806
8.04 679
8.1 764
8.16 769
8.22 735
8.28 748
8.34 702
8.4 718
8.46 744
8.52 733
8.58 708
8.64 784
8.7 728
8.76 722
8.82 744
8.88 720
8.94 738
9 757
9.06 738
9.12 697
9.18 703
9.24 690
9.3 713
9.36 743
9.42 715
9.48 727
9.54 682
9.6 700
9.66 709
9.72 670
9.78 715
9.84 735
9.9 706
9.96 665
10.02 710
10.08 680
10.14 749
10.2 727
10.26 731
10.32 705
10.38 705
10.44 673
10.5 725
10.56 668
10.62 725
10.68 688
10.74 709
10.8 653
10.86 675
10.92 659
10.98 690
11.04 698
11.1 736
11.16 701
11.22 752
11.28 694
11.34 694
11.4 701
11.46 705
11.52 681
11.58 687
11.64 709
11.7 672
11.76 709
11.82 717
11.88 716
11.94 700
12 751
12.06 640
12.12 691
12.18 732
12.24 689
12.3 693
12.36 711
12.42 659
12.48 704
12.54 679
12.6 689
12.66 675
12.72 691
12.78 708
12.84 706
12.9 678
12.96 680
13.02 732
13.08 702
13.14 666
13.2 682
13.26 680
13.32 730
13.38 705
13.44 697
13.5 706
13.56 709
13.62 720
13.68 720
13.74 771
13.8 682
13.86 711
13.92 718
13.98 704
14.04 729
14.1 723
14.16 713
14.22 715
14.28 692
14.34 722
14.4 733
14.46 774
14.52 736
14.58 737
14.64 800
14.7 723
14.76 750
14.82 721
14.88 768
14.94 790
15 731
15.06 738
15.12 779
15.18 822
15.24 755
15.3 807
15.36 803
15.42 784
15.48 819
15.54 813
15.6 747
15.66 819
15.72 802
15.78 838
15.84 818
15.9 864
15.96 869
16.02 821
16.08 855
16.14 829
16.2 834
16.26 819
16.32 833
16.38 902
16.44 838
16.5 843
16.56 898
16.62 878
16.68 919
16.74 970
16.8 998
16.86 1128
16.92 1390
16.98 1735
17.04 1978
17.1 1779
17.16 1473
17.22 1217
17.28 1089
17.34 993
17.4 1024
17.46 1057
17.52 1007
17.58 1017
17.64 936
17.7 1048
17.76 1019
17.82 976
17.88 1053
17.94 1027
18 1113
18.06 1069
18.12 1089
18.18 1107
18.24 1017
18.3 1099
18.36 1083
18.42 1111
18.48 1069
18.54 1208
18.6 1156
18.66 1129
18.72 1137
18.78 1127
18.84 1152
18.9 1194
18.96 1163
19.02 1246
19.08 1220
19.14 1161
19.2 1224
19.26 1222
19.32 1238
19.38 1247
19.44 1241
19.5 1263
19.56 1251
19.62 1277
19.68 1351
19.74 1344
19.8 1395
19.86 1314
19.92 1350
19.98 1353
20 1379