File: xrd-UiO-67/pxrddata/7-7.ASC
3 2072
3.06 1746
3.12 1555
3.18 1501
3.24 1437
3.3 1381
3.36 1418
3.42 1404
3.48 1320
3.54 1310
3.6 1334
3.66 1307
3.72 1227
3.78 1306
3.84 1396
3.9 1265
3.96 1261
4.02 1225
4.08 1324
4.14 1219
4.2 1228
4.26 1323
4.32 1231
4.38 1339
4.44 1284
4.5 1276
4.56 1264
4.62 1320
4.68 1336
4.74 1272
4.8 1333
4.86 1202
4.92 1299
4.98 1318
5.04 1309
5.1 1376
5.16 1319
5.22 1284
5.28 1338
5.34 1316
5.4 1289
5.46 1305
5.52 1305
5.58 1321
5.64 1265
5.7 1280
5.76 1231
5.82 1294
5.88 1207
5.94 1250
6 1233
6.06 1144
6.12 1232
6.18 1142
6.24 1161
6.3 1124
6.36 1110
6.42 1030
6.48 1029
6.54 1045
6.6 991
6.66 948
6.72 985
6.78 920
6.84 929
6.9 902
6.96 946
7.02 918
7.08 950
7.14 936
7.2 860
7.26 892
7.32 829
7.38 868
7.44 853
7.5 833
7.56 899
7.62 814
7.68 846
7.74 877
7.8 799
7.86 874
7.92 830
7.98 795
8.04 852
8.1 813
8.16 858
8.22 790
8.28 805
8.34 775
8.4 770
8.46 789
8.52 822
8.58 793
8.64 851
8.7 800
8.76 760
8.82 798
8.88 839
8.94 810
9 809
9.06 775
9.12 775
9.18 831
9.24 814
9.3 782
9.36 777
9.42 853
9.48 807
9.54 760
9.6 791
9.66 793
9.72 754
9.78 782
9.84 798
9.9 819
9.96 811
10.02 848
10.08 796
10.14 816
10.2 787
10.26 771
10.32 788
10.38 782
10.44 834
10.5 764
10.56 773
10.62 807
10.68 770
10.74 754
10.8 788
10.86 812
10.92 809
10.98 757
11.04 820
11.1 815
11.16 773
11.22 821
11.28 747
11.34 784
11.4 783
11.46 836
11.52 764
11.58 833
11.64 812
11.7 744
11.76 764
11.82 845
11.88 787
11.94 786
12 766
12.06 836
12.12 797
12.18 793
12.24 816
12.3 792
12.36 791
12.42 823
12.48 815
12.54 822
12.6 772
12.66 813
12.72 803
12.78 808
12.84 843
12.9 815
12.96 773
13.02 825
13.08 812
13.14 831
13.2 820
13.26 876
13.32 799
13.38 822
13.44 786
13.5 818
13.56 868
13.62 845
13.68 887
13.74 854
13.8 814
13.86 858
13.92 873
13.98 872
14.04 851
14.1 892
14.16 908
14.22 879
14.28 893
14.34 952
14.4 843
14.46 928
14.52 904
14.58 932
14.64 905
14.7 916
14.76 892
14.82 921
14.88 924
14.94 995
15 948
15.06 960
15.12 979
15.18 983
15.24 1031
15.3 984
15.36 1043
15.42 971
15.48 1019
15.54 1038
15.6 1034
15.66 1010
15.72 1032
15.78 1058
15.84 1072
15.9 1047
15.96 1090
16.02 1065
16.08 1080
16.14 1105
16.2 1098
16.26 1112
16.32 1110
16.38 1084
16.44 1135
16.5 1214
16.56 1183
16.62 1218
16.68 1193
16.74 1230
16.8 1283
16.86 1352
16.92 1626
16.98 1763
17.04 1847
17.1 1697
17.16 1593
17.22 1486
17.28 1491
17.34 1486
17.4 1401
17.46 1352
17.52 1322
17.58 1278
17.64 1361
17.7 1363
17.76 1387
17.82 1377
17.88 1484
17.94 1390
18 1400
18.06 1419
18.12 1454
18.18 1424
18.24 1498
18.3 1493
18.36 1471
18.42 1447
18.48 1520
18.54 1596
18.6 1507
18.66 1485
18.72 1560
18.78 1649
18.84 1596
18.9 1609
18.96 1625
19.02 1637
19.08 1602
19.14 1634
19.2 1593
19.26 1603
19.32 1689
19.38 1722
19.44 1722
19.5 1670
19.56 1779
19.62 1678
19.68 1745
19.74 1747
19.8 1764
19.86 1777
19.92 1781
19.98 1755
20 1748