File: xrd-UiO-67/pxrddata/7-8.ASC
3 2348
3.06 1947
3.12 1759
3.18 1709
3.24 1622
3.3 1562
3.36 1584
3.42 1429
3.48 1398
3.54 1426
3.6 1363
3.66 1342
3.72 1329
3.78 1240
3.84 1272
3.9 1223
3.96 1181
4.02 1104
4.08 1140
4.14 1110
4.2 1128
4.26 1068
4.32 1046
4.38 1051
4.44 1008
4.5 1003
4.56 998
4.62 1003
4.68 953
4.74 958
4.8 982
4.86 954
4.92 929
4.98 972
5.04 922
5.1 914
5.16 892
5.22 937
5.28 934
5.34 873
5.4 877
5.46 860
5.52 895
5.58 813
5.64 895
5.7 906
5.76 842
5.82 825
5.88 842
5.94 854
6 803
6.06 895
6.12 888
6.18 815
6.24 826
6.3 836
6.36 885
6.42 826
6.48 826
6.54 818
6.6 833
6.66 839
6.72 772
6.78 853
6.84 804
6.9 864
6.96 860
7.02 813
7.08 757
7.14 810
7.2 793
7.26 808
7.32 844
7.38 821
7.44 791
7.5 806
7.56 785
7.62 802
7.68 784
7.74 806
7.8 817
7.86 809
7.92 766
7.98 801
8.04 802
8.1 811
8.16 809
8.22 788
8.28 791
8.34 800
8.4 798
8.46 769
8.52 753
8.58 729
8.64 747
8.7 777
8.76 798
8.82 764
8.88 772
8.94 745
9 740
9.06 778
9.12 733
9.18 715
9.24 742
9.3 726
9.36 758
9.42 728
9.48 732
9.54 756
9.6 728
9.66 755
9.72 719
9.78 751
9.84 770
9.9 705
9.96 675
10.02 716
10.08 719
10.14 741
10.2 725
10.26 736
10.32 772
10.38 678
10.44 678
10.5 708
10.56 716
10.62 771
10.68 725
10.74 756
10.8 708
10.86 734
10.92 692
10.98 747
11.04 691
11.1 701
11.16 716
11.22 741
11.28 710
11.34 666
11.4 729
11.46 730
11.52 699
11.58 726
11.64 716
11.7 709
11.76 731
11.82 712
11.88 708
11.94 740
12 701
12.06 768
12.12 736
12.18 718
12.24 768
12.3 726
12.36 701
12.42 703
12.48 731
12.54 732
12.6 724
12.66 772
12.72 762
12.78 773
12.84 710
12.9 752
12.96 707
13.02 758
13.08 783
13.14 760
13.2 701
13.26 702
13.32 731
13.38 793
13.44 784
13.5 754
13.56 768
13.62 757
13.68 744
13.74 751
13.8 752
13.86 724
13.92 738
13.98 770
14.04 790
14.1 772
14.16 791
14.22 745
14.28 832
14.34 767
14.4 786
14.46 732
14.52 782
14.58 749
14.64 791
14.7 857
14.76 857
14.82 850
14.88 807
14.94 785
15 792
15.06 791
15.12 804
15.18 875
15.24 798
15.3 843
15.36 827
15.42 813
15.48 905
15.54 816
15.6 880
15.66 847
15.72 900
15.78 854
15.84 941
15.9 879
15.96 937
16.02 954
16.08 873
16.14 908
16.2 927
16.26 933
16.32 946
16.38 978
16.44 959
16.5 934
16.56 978
16.62 1019
16.68 1014
16.74 1068
16.8 1074
16.86 1236
16.92 1425
16.98 1699
17.04 1770
17.1 1820
17.16 1843
17.22 1623
17.28 1262
17.34 1126
17.4 1136
17.46 1099
17.52 1121
17.58 1167
17.64 1133
17.7 1197
17.76 1106
17.82 1137
17.88 1122
17.94 1190
18 1181
18.06 1201
18.12 1204
18.18 1242
18.24 1215
18.3 1244
18.36 1252
18.42 1255
18.48 1254
18.54 1321
18.6 1261
18.66 1277
18.72 1299
18.78 1338
18.84 1385
18.9 1387
18.96 1307
19.02 1359
19.08 1393
19.14 1417
19.2 1424
19.26 1366
19.32 1435
19.38 1445
19.44 1457
19.5 1465
19.56 1472
19.62 1446
19.68 1479
19.74 1478
19.8 1457
19.86 1569
19.92 1533
19.98 1530
20 1561