File: xrd-UiO-67/pxrddata/7-9.ASC
3 1979
3.06 1482
3.12 1297
3.18 1216
3.24 1150
3.3 1126
3.36 1177
3.42 1095
3.48 1037
3.54 974
3.6 992
3.66 984
3.72 921
3.78 916
3.84 897
3.9 861
3.96 848
4.02 779
4.08 826
4.14 776
4.2 706
4.26 727
4.32 697
4.38 687
4.44 693
4.5 688
4.56 640
4.62 634
4.68 610
4.74 608
4.8 623
4.86 597
4.92 525
4.98 563
5.04 552
5.1 545
5.16 525
5.22 566
5.28 493
5.34 524
5.4 533
5.46 520
5.52 493
5.58 503
5.64 485
5.7 514
5.76 475
5.82 471
5.88 483
5.94 478
6 513
6.06 501
6.12 528
6.18 445
6.24 516
6.3 504
6.36 501
6.42 503
6.48 474
6.54 484
6.6 503
6.66 503
6.72 496
6.78 501
6.84 482
6.9 454
6.96 467
7.02 458
7.08 478
7.14 463
7.2 542
7.26 499
7.32 522
7.38 499
7.44 483
7.5 451
7.56 439
7.62 502
7.68 471
7.74 494
7.8 475
7.86 469
7.92 469
7.98 449
8.04 480
8.1 483
8.16 486
8.22 447
8.28 454
8.34 462
8.4 462
8.46 466
8.52 505
8.58 480
8.64 526
8.7 563
8.76 647
8.82 690
8.88 892
8.94 1136
9 1479
9.06 1335
9.12 1079
9.18 941
9.24 871
9.3 699
9.36 548
9.42 537
9.48 497
9.54 508
9.6 534
9.66 495
9.72 552
9.78 613
9.84 694
9.9 812
9.96 1078
10.02 856
10.08 726
10.14 809
10.2 704
10.26 515
10.32 473
10.38 422
10.44 443
10.5 437
10.56 425
10.62 428
10.68 416
10.74 410
10.8 437
10.86 449
10.92 396
10.98 409
11.04 390
11.1 434
11.16 456
11.22 411
11.28 443
11.34 420
11.4 412
11.46 406
11.52 406
11.58 410
11.64 428
11.7 434
11.76 429
11.82 381
11.88 370
11.94 399
12 394
12.06 372
12.12 383
12.18 397
12.24 413
12.3 372
12.36 396
12.42 394
12.48 445
12.54 450
12.6 505
12.66 479
12.72 525
12.78 532
12.84 527
12.9 446
12.96 393
13.02 448
13.08 420
13.14 414
13.2 444
13.26 476
13.32 495
13.38 563
13.44 586
13.5 505
13.56 520
13.62 533
13.68 462
13.74 437
13.8 439
13.86 413
13.92 438
13.98 423
14.04 381
14.1 390
14.16 386
14.22 437
14.28 407
14.34 404
14.4 405
14.46 424
14.52 444
14.58 409
14.64 402
14.7 437
14.76 413
14.82 425
14.88 430
14.94 447
15 453
15.06 432
15.12 453
15.18 448
15.24 476
15.3 426
15.36 437
15.42 452
15.48 442
15.54 410
15.6 445
15.66 450
15.72 467
15.78 450
15.84 454
15.9 443
15.96 483
16.02 465
16.08 446
16.14 482
16.2 487
16.26 494
16.32 445
16.38 452
16.44 451
16.5 465
16.56 462
16.62 478
16.68 480
16.74 487
16.8 526
16.86 610
16.92 599
16.98 686
17.04 652
17.1 566
17.16 612
17.22 587
17.28 546
17.34 566
17.4 540
17.46 517
17.52 547
17.58 553
17.64 557
17.7 541
17.76 554
17.82 561
17.88 562
17.94 581
18 597
18.06 590
18.12 592
18.18 560
18.24 558
18.3 570
18.36 593
18.42 585
18.48 624
18.54 615
18.6 562
18.66 619
18.72 577
18.78 600
18.84 566
18.9 586
18.96 596
19.02 611
19.08 600
19.14 609
19.2 599
19.26 628
19.32 585
19.38 644
19.44 598
19.5 699
19.56 649
19.62 646
19.68 676
19.74 636
19.8 696
19.86 720
19.92 753
19.98 808
20 833