File: xrd-UiO-67/pxrddata/75-24.ASC
3 1326
3.06 1213
3.12 1216
3.18 1148
3.24 1091
3.3 1112
3.36 1039
3.42 1029
3.48 1013
3.54 947
3.6 972
3.66 899
3.72 929
3.78 888
3.84 888
3.9 825
3.96 841
4.02 751
4.08 834
4.14 825
4.2 808
4.26 797
4.32 799
4.38 807
4.44 773
4.5 751
4.56 765
4.62 751
4.68 766
4.74 760
4.8 766
4.86 731
4.92 749
4.98 799
5.04 832
5.1 807
5.16 841
5.22 963
5.28 981
5.34 984
5.4 1085
5.46 1193
5.52 1344
5.58 1563
5.64 1844
5.7 2417
5.76 3735
5.82 2203
5.88 941
5.94 849
6 837
6.06 887
6.12 884
6.18 865
6.24 811
6.3 904
6.36 957
6.42 1029
6.48 1189
6.54 1432
6.6 1764
6.66 2289
6.72 1042
6.78 810
6.84 744
6.9 736
6.96 728
7.02 696
7.08 695
7.14 680
7.2 701
7.26 667
7.32 709
7.38 655
7.44 687
7.5 660
7.56 703
7.62 659
7.68 683
7.74 659
7.8 670
7.86 658
7.92 693
7.98 661
8.04 669
8.1 671
8.16 669
8.22 714
8.28 674
8.34 665
8.4 664
8.46 654
8.52 674
8.58 704
8.64 679
8.7 665
8.76 664
8.82 677
8.88 681
8.94 709
9 687
9.06 740
9.12 834
9.18 871
9.24 1029
9.3 1349
9.36 1787
9.42 1473
9.48 825
9.54 686
9.6 729
9.66 705
9.72 701
9.78 657
9.84 675
9.9 700
9.96 720
10.02 706
10.08 685
10.14 660
10.2 703
10.26 667
10.32 720
10.38 694
10.44 762
10.5 715
10.56 748
10.62 735
10.68 807
10.74 888
10.8 938
10.86 1052
10.92 1295
10.98 1871
11.04 1256
11.1 786
11.16 757
11.22 806
11.28 804
11.34 871
11.4 989
11.46 1247
11.52 1073
11.58 792
11.64 761
11.7 713
11.76 698
11.82 732
11.88 737
11.94 720
12 729
12.06 762
12.12 758
12.18 744
12.24 767
12.3 740
12.36 752
12.42 720
12.48 705
12.54 679
12.6 777
12.66 771
12.72 768
12.78 762
12.84 760
12.9 769
12.96 789
13.02 759
13.08 765
13.14 828
13.2 889
13.26 969
13.32 886
13.38 788
13.44 796
13.5 772
13.56 823
13.62 830
13.68 814
13.74 796
13.8 801
13.86 773
13.92 857
13.98 861
14.04 896
14.1 831
14.16 881
14.22 814
14.28 891
14.34 929
14.4 1067
14.46 1054
14.52 871
14.58 907
14.64 961
14.7 917
14.76 884
14.82 967
14.88 942
14.94 974
15 929
15.06 971
15.12 964
15.18 1004
15.24 998
15.3 953
15.36 1032
15.42 1018
15.48 1043
15.54 1012
15.6 1034
15.66 1025
15.72 1030
15.78 1032
15.84 1013
15.9 1090
15.96 1086
16.02 1084
16.08 1086
16.14 1130
16.2 1151
16.26 1119
16.32 1203
16.38 1191
16.44 1161
16.5 1200
16.56 1321
16.62 1192
16.68 1204
16.74 1230
16.8 1198
16.86 1281
16.92 1304
16.98 1279
17.04 1284
17.1 1315
17.16 1430
17.22 1485
17.28 1460
17.34 1367
17.4 1332
17.46 1412
17.52 1393
17.58 1440
17.64 1484
17.7 1453
17.76 1451
17.82 1451
17.88 1527
17.94 1542
18 1511
18.06 1494
18.12 1474
18.18 1545
18.24 1545
18.3 1512
18.36 1627
18.42 1600
18.48 1556
18.54 1693
18.6 1640
18.66 1647
18.72 1610
18.78 1619
18.84 1662
18.9 1660
18.96 1678
19.02 1693
19.08 1727
19.14 1726
19.2 1721
19.26 1770
19.32 1713
19.38 1790
19.44 1884
19.5 2004
19.56 2276
19.62 2407
19.68 2068
19.74 1976
19.8 2164
19.86 2582
19.92 2430
19.98 1964
20 1915