File: xrd-UiO-67/pxrddata/76-8.ASC
3 1319
3.06 1308
3.12 1245
3.18 1166
3.24 1046
3.3 1064
3.36 1048
3.42 1017
3.48 979
3.54 952
3.6 908
3.66 917
3.72 880
3.78 851
3.84 817
3.9 803
3.96 814
4.02 830
4.08 720
4.14 753
4.2 713
4.26 716
4.32 655
4.38 717
4.44 671
4.5 651
4.56 718
4.62 683
4.68 690
4.74 688
4.8 685
4.86 681
4.92 733
4.98 704
5.04 776
5.1 817
5.16 889
5.22 983
5.28 1039
5.34 1054
5.4 1284
5.46 1507
5.52 1884
5.58 2570
5.64 3316
5.7 5023
5.76 9841
5.82 2393
5.88 973
5.94 867
6 798
6.06 810
6.12 810
6.18 863
6.24 916
6.3 1018
6.36 1136
6.42 1321
6.48 1588
6.54 2018
6.6 3251
6.66 3800
6.72 874
6.78 715
6.84 658
6.9 624
6.96 618
7.02 624
7.08 599
7.14 602
7.2 584
7.26 571
7.32 552
7.38 594
7.44 582
7.5 554
7.56 603
7.62 607
7.68 546
7.74 544
7.8 636
7.86 534
7.92 600
7.98 549
8.04 567
8.1 601
8.16 602
8.22 529
8.28 569
8.34 587
8.4 580
8.46 592
8.52 585
8.58 587
8.64 608
8.7 609
8.76 628
8.82 599
8.88 618
8.94 628
9 687
9.06 834
9.12 879
9.18 1090
9.24 1363
9.3 2041
9.36 3636
9.42 1674
9.48 651
9.54 605
9.6 623
9.66 607
9.72 594
9.78 553
9.84 598
9.9 591
9.96 583
10.02 563
10.08 576
10.14 572
10.2 611
10.26 566
10.32 589
10.38 616
10.44 588
10.5 577
10.56 684
10.62 690
10.68 768
10.74 850
10.8 1071
10.86 1276
10.92 2070
10.98 3296
11.04 1356
11.1 699
11.16 714
11.22 723
11.28 792
11.34 929
11.4 1309
11.46 2287
11.52 1183
11.58 636
11.64 593
11.7 582
11.76 623
11.82 618
11.88 621
11.94 579
12 608
12.06 591
12.12 565
12.18 563
12.24 615
12.3 573
12.36 603
12.42 632
12.48 622
12.54 590
12.6 576
12.66 588
12.72 626
12.78 620
12.84 636
12.9 618
12.96 686
13.02 692
13.08 682
13.14 795
13.2 941
13.26 1021
13.32 693
13.38 625
13.44 631
13.5 625
13.56 653
13.62 656
13.68 660
13.74 632
13.8 617
13.86 635
13.92 597
13.98 650
14.04 650
14.1 709
14.16 718
14.22 682
14.28 710
14.34 825
14.4 1072
14.46 948
14.52 730
14.58 690
14.64 695
14.7 738
14.76 741
14.82 791
14.88 705
14.94 678
15 709
15.06 732
15.12 712
15.18 748
15.24 737
15.3 737
15.36 756
15.42 758
15.48 749
15.54 760
15.6 743
15.66 742
15.72 757
15.78 770
15.84 759
15.9 804
15.96 805
16.02 727
16.08 771
16.14 777
16.2 812
16.26 817
16.32 824
16.38 844
16.44 799
16.5 852
16.56 833
16.62 827
16.68 896
16.74 976
16.8 1030
16.86 1149
16.92 1455
16.98 1960
17.04 1555
17.1 1082
17.16 1218
17.22 1337
17.28 1029
17.34 973
17.4 982
17.46 994
17.52 951
17.58 920
17.64 986
17.7 1037
17.76 971
17.82 994
17.88 1063
17.94 1049
18 1087
18.06 1035
18.12 1089
18.18 1017
18.24 1072
18.3 1078
18.36 1037
18.42 1113
18.48 1105
18.54 1115
18.6 1061
18.66 1132
18.72 1112
18.78 1171
18.84 1139
18.9 1166
18.96 1191
19.02 1243
19.08 1129
19.14 1155
19.2 1171
19.26 1214
19.32 1133
19.38 1284
19.44 1312
19.5 1536
19.56 2009
19.62 2400
19.68 1688
19.74 1583
19.8 1980
19.86 2976
19.92 2566
19.98 1535
20 1326