File: xrd-UiO-67/pxrddata/77-1.ASC
3 824
3.06 754
3.12 749
3.18 733
3.24 717
3.3 713
3.36 709
3.42 694
3.48 665
3.54 661
3.6 632
3.66 629
3.72 592
3.78 595
3.84 595
3.9 621
3.96 610
4.02 603
4.08 586
4.14 546
4.2 582
4.26 546
4.32 532
4.38 459
4.44 484
4.5 463
4.56 480
4.62 471
4.68 480
4.74 438
4.8 467
4.86 420
4.92 415
4.98 466
5.04 457
5.1 495
5.16 467
5.22 470
5.28 491
5.34 526
5.4 501
5.46 554
5.52 625
5.58 640
5.64 772
5.7 912
5.76 1024
5.82 1376
5.88 1554
5.94 654
6 523
6.06 479
6.12 483
6.18 470
6.24 470
6.3 492
6.36 504
6.42 527
6.48 540
6.54 579
6.6 685
6.66 750
6.72 923
6.78 904
6.84 525
6.9 464
6.96 429
7.02 434
7.08 450
7.14 420
7.2 437
7.26 430
7.32 392
7.38 447
7.44 455
7.5 403
7.56 411
7.62 416
7.68 430
7.74 440
7.8 430
7.86 403
7.92 399
7.98 417
8.04 441
8.1 413
8.16 396
8.22 443
8.28 392
8.34 406
8.4 416
8.46 427
8.52 417
8.58 399
8.64 428
8.7 402
8.76 386
8.82 410
8.88 429
8.94 408
9 450
9.06 393
9.12 439
9.18 425
9.24 471
9.3 531
9.36 583
9.42 676
9.48 786
9.54 528
9.6 413
9.66 405
9.72 387
9.78 438
9.84 402
9.9 412
9.96 424
10.02 427
10.08 398
10.14 409
10.2 455
10.26 396
10.32 422
10.38 416
10.44 410
10.5 416
10.56 421
10.62 421
10.68 434
10.74 433
10.8 445
10.86 483
10.92 516
10.98 575
11.04 664
11.1 723
11.16 481
11.22 430
11.28 467
11.34 433
11.4 456
11.46 490
11.52 529
11.58 584
11.64 457
11.7 384
11.76 392
11.82 380
11.88 407
11.94 410
12 445
12.06 380
12.12 421
12.18 430
12.24 424
12.3 426
12.36 411
12.42 410
12.48 440
12.54 488
12.6 396
12.66 438
12.72 410
12.78 426
12.84 421
12.9 414
12.96 406
13.02 459
13.08 480
13.14 483
13.2 446
13.26 472
13.32 476
13.38 464
13.44 457
13.5 476
13.56 470
13.62 466
13.68 503
13.74 493
13.8 478
13.86 475
13.92 459
13.98 490
14.04 466
14.1 497
14.16 489
14.22 491
14.28 488
14.34 532
14.4 519
14.46 527
14.52 551
14.58 510
14.64 504
14.7 538
14.76 527
14.82 529
14.88 538
14.94 555
15 578
15.06 520
15.12 537
15.18 558
15.24 563
15.3 565
15.36 538
15.42 598
15.48 606
15.54 561
15.6 584
15.66 563
15.72 625
15.78 638
15.84 621
15.9 662
15.96 609
16.02 644
16.08 664
16.14 609
16.2 658
16.26 678
16.32 681
16.38 655
16.44 658
16.5 673
16.56 730
16.62 703
16.68 656
16.74 739
16.8 741
16.86 749
16.92 792
16.98 752
17.04 756
17.1 773
17.16 818
17.22 769
17.28 818
17.34 829
17.4 842
17.46 877
17.52 783
17.58 840
17.64 818
17.7 814
17.76 837
17.82 881
17.88 869
17.94 903
18 879
18.06 925
18.12 919
18.18 914
18.24 926
18.3 960
18.36 1012
18.42 993
18.48 984
18.54 1003
18.6 959
18.66 984
18.72 1012
18.78 1055
18.84 1054
18.9 1071
18.96 1084
19.02 1058
19.08 1161
19.14 1169
19.2 1124
19.26 1134
19.32 1166
19.38 1123
19.44 1234
19.5 1153
19.56 1149
19.62 1224
19.68 1276
19.74 1299
19.8 1296
19.86 1275
19.92 1328
19.98 1377
20 1349