File: xrd-UiO-67/pxrddata/77-5.ASC
3 1066
3.06 1048
3.12 966
3.18 946
3.24 896
3.3 955
3.36 858
3.42 877
3.48 799
3.54 794
3.6 769
3.66 803
3.72 780
3.78 750
3.84 706
3.9 701
3.96 693
4.02 678
4.08 657
4.14 624
4.2 669
4.26 580
4.32 618
4.38 649
4.44 622
4.5 603
4.56 615
4.62 603
4.68 618
4.74 601
4.8 617
4.86 610
4.92 687
4.98 645
5.04 677
5.1 763
5.16 818
5.22 850
5.28 879
5.34 1030
5.4 1192
5.46 1336
5.52 1617
5.58 2008
5.64 2441
5.7 3409
5.76 6492
5.82 2020
5.88 877
5.94 767
6 684
6.06 722
6.12 735
6.18 792
6.24 787
6.3 850
6.36 1009
6.42 1150
6.48 1360
6.54 1706
6.6 2465
6.66 3940
6.72 837
6.78 610
6.84 614
6.9 589
6.96 576
7.02 546
7.08 559
7.14 518
7.2 558
7.26 527
7.32 548
7.38 533
7.44 556
7.5 512
7.56 511
7.62 532
7.68 529
7.74 540
7.8 502
7.86 491
7.92 524
7.98 519
8.04 521
8.1 537
8.16 511
8.22 536
8.28 525
8.34 483
8.4 507
8.46 560
8.52 539
8.58 538
8.64 516
8.7 539
8.76 525
8.82 482
8.88 605
8.94 599
9 658
9.06 704
9.12 762
9.18 859
9.24 1070
9.3 1517
9.36 2588
9.42 1455
9.48 598
9.54 596
9.6 565
9.66 589
9.72 581
9.78 550
9.84 577
9.9 572
9.96 526
10.02 558
10.08 521
10.14 553
10.2 572
10.26 586
10.32 595
10.38 560
10.44 641
10.5 579
10.56 606
10.62 630
10.68 722
10.74 761
10.8 920
10.86 1107
10.92 1528
10.98 2686
11.04 1304
11.1 670
11.16 665
11.22 690
11.28 716
11.34 854
11.4 1016
11.46 1540
11.52 1020
11.58 621
11.64 575
11.7 542
11.76 624
11.82 620
11.88 614
11.94 593
12 622
12.06 609
12.12 619
12.18 587
12.24 636
12.3 662
12.36 618
12.42 644
12.48 615
12.54 625
12.6 691
12.66 635
12.72 668
12.78 622
12.84 675
12.9 674
12.96 673
13.02 664
13.08 718
13.14 817
13.2 878
13.26 1003
13.32 665
13.38 704
13.44 692
13.5 713
13.56 637
13.62 694
13.68 723
13.74 667
13.8 726
13.86 698
13.92 742
13.98 772
14.04 701
14.1 714
14.16 803
14.22 817
14.28 812
14.34 797
14.4 918
14.46 1017
14.52 785
14.58 808
14.64 830
14.7 809
14.76 829
14.82 856
14.88 810
14.94 804
15 802
15.06 791
15.12 821
15.18 839
15.24 834
15.3 850
15.36 867
15.42 879
15.48 841
15.54 862
15.6 927
15.66 866
15.72 891
15.78 912
15.84 857
15.9 848
15.96 914
16.02 845
16.08 956
16.14 934
16.2 915
16.26 947
16.32 970
16.38 972
16.44 999
16.5 1039
16.56 977
16.62 1001
16.68 1031
16.74 1039
16.8 1023
16.86 1080
16.92 1069
16.98 1081
17.04 1174
17.1 1159
17.16 1215
17.22 1412
17.28 1165
17.34 1195
17.4 1112
17.46 1166
17.52 1217
17.58 1198
17.64 1145
17.7 1210
17.76 1212
17.82 1210
17.88 1230
17.94 1231
18 1204
18.06 1398
18.12 1253
18.18 1273
18.24 1285
18.3 1236
18.36 1323
18.42 1292
18.48 1352
18.54 1365
18.6 1335
18.66 1323
18.72 1357
18.78 1392
18.84 1330
18.9 1375
18.96 1394
19.02 1385
19.08 1414
19.14 1420
19.2 1468
19.26 1454
19.32 1478
19.38 1493
19.44 1538
19.5 1692
19.56 1900
19.62 2247
19.68 1761
19.74 1702
19.8 1847
19.86 2431
19.92 2251
19.98 1642
20 1527