File: xrd-UiO-67/pxrddata/77-6.ASC
3 973
3.06 989
3.12 941
3.18 901
3.24 920
3.3 882
3.36 842
3.42 899
3.48 808
3.54 831
3.6 792
3.66 791
3.72 775
3.78 748
3.84 775
3.9 744
3.96 758
4.02 721
4.08 774
4.14 808
4.2 679
4.26 714
4.32 732
4.38 691
4.44 720
4.5 713
4.56 734
4.62 716
4.68 726
4.74 745
4.8 746
4.86 757
4.92 781
4.98 738
5.04 756
5.1 778
5.16 835
5.22 847
5.28 875
5.34 867
5.4 912
5.46 963
5.52 1103
5.58 1208
5.64 1420
5.7 1736
5.76 2032
5.82 1767
5.88 1234
5.94 846
6 787
6.06 718
6.12 732
6.18 739
6.24 703
6.3 738
6.36 791
6.42 799
6.48 899
6.54 997
6.6 1184
6.66 1251
6.72 1056
6.78 827
6.84 726
6.9 593
6.96 565
7.02 583
7.08 649
7.14 587
7.2 551
7.26 594
7.32 564
7.38 593
7.44 559
7.5 582
7.56 559
7.62 551
7.68 573
7.74 544
7.8 587
7.86 551
7.92 568
7.98 493
8.04 545
8.1 538
8.16 557
8.22 539
8.28 559
8.34 534
8.4 561
8.46 544
8.52 566
8.58 545
8.64 564
8.7 544
8.76 505
8.82 583
8.88 572
8.94 605
9 544
9.06 576
9.12 590
9.18 661
9.24 724
9.3 905
9.36 1012
9.42 976
9.48 763
9.54 612
9.6 592
9.66 608
9.72 579
9.78 552
9.84 521
9.9 572
9.96 550
10.02 562
10.08 553
10.14 592
10.2 562
10.26 571
10.32 596
10.38 529
10.44 514
10.5 557
10.56 559
10.62 616
10.68 598
10.74 617
10.8 645
10.86 762
10.92 914
10.98 1049
11.04 933
11.1 736
11.16 611
11.22 583
11.28 640
11.34 664
11.4 730
11.46 807
11.52 743
11.58 672
11.64 589
11.7 635
11.76 571
11.82 591
11.88 564
11.94 580
12 571
12.06 563
12.12 600
12.18 570
12.24 579
12.3 617
12.36 554
12.42 561
12.48 558
12.54 544
12.6 595
12.66 547
12.72 608
12.78 584
12.84 568
12.9 592
12.96 584
13.02 625
13.08 624
13.14 623
13.2 660
13.26 696
13.32 625
13.38 613
13.44 609
13.5 639
13.56 665
13.62 623
13.68 614
13.74 617
13.8 633
13.86 659
13.92 602
13.98 612
14.04 663
14.1 644
14.16 644
14.22 681
14.28 672
14.34 752
14.4 734
14.46 770
14.52 722
14.58 691
14.64 760
14.7 689
14.76 704
14.82 707
14.88 780
14.94 733
15 728
15.06 734
15.12 727
15.18 807
15.24 795
15.3 767
15.36 777
15.42 823
15.48 752
15.54 821
15.6 752
15.66 794
15.72 832
15.78 785
15.84 812
15.9 876
15.96 853
16.02 832
16.08 834
16.14 796
16.2 870
16.26 937
16.32 890
16.38 928
16.44 973
16.5 954
16.56 943
16.62 930
16.68 1024
16.74 941
16.8 987
16.86 972
16.92 986
16.98 1020
17.04 980
17.1 1085
17.16 1093
17.22 1098
17.28 1145
17.34 1102
17.4 1034
17.46 1104
17.52 1068
17.58 1066
17.64 1095
17.7 1144
17.76 1161
17.82 1144
17.88 1192
17.94 1110
18 1219
18.06 1121
18.12 1219
18.18 1158
18.24 1160
18.3 1214
18.36 1212
18.42 1215
18.48 1210
18.54 1266
18.6 1228
18.66 1251
18.72 1241
18.78 1244
18.84 1305
18.9 1264
18.96 1277
19.02 1297
19.08 1286
19.14 1366
19.2 1296
19.26 1329
19.32 1413
19.38 1423
19.44 1399
19.5 1519
19.56 1589
19.62 1620
19.68 1505
19.74 1561
19.8 1615
19.86 1700
19.92 1777
19.98 1544
20 1533