File: xrd-UiO-67/pxrddata/78-14.ASC
3 1359
3.06 1269
3.12 1293
3.18 1217
3.24 1227
3.3 1192
3.36 1210
3.42 1166
3.48 1203
3.54 1150
3.6 1142
3.66 1191
3.72 1161
3.78 1189
3.84 1149
3.9 1141
3.96 1173
4.02 1163
4.08 1208
4.14 1312
4.2 1194
4.26 1240
4.32 1237
4.38 1280
4.44 1346
4.5 1321
4.56 1342
4.62 1366
4.68 1370
4.74 1407
4.8 1359
4.86 1402
4.92 1563
4.98 1490
5.04 1435
5.1 1423
5.16 1485
5.22 1529
5.28 1545
5.34 1526
5.4 1655
5.46 1658
5.52 1845
5.58 1913
5.64 2154
5.7 2796
5.76 2187
5.82 1297
5.88 1146
5.94 1201
6 1173
6.06 1108
6.12 1147
6.18 1114
6.24 1123
6.3 1115
6.36 1110
6.42 1223
6.48 1318
6.54 1602
6.6 1877
6.66 1151
6.72 874
6.78 862
6.84 921
6.9 905
6.96 912
7.02 898
7.08 877
7.14 800
7.2 831
7.26 803
7.32 842
7.38 805
7.44 809
7.5 748
7.56 759
7.62 775
7.68 788
7.74 796
7.8 802
7.86 774
7.92 723
7.98 763
8.04 777
8.1 748
8.16 772
8.22 735
8.28 748
8.34 782
8.4 766
8.46 773
8.52 782
8.58 775
8.64 801
8.7 778
8.76 769
8.82 790
8.88 810
8.94 763
9 834
9.06 868
9.12 910
9.18 948
9.24 1140
9.3 1447
9.36 1229
9.42 804
9.48 746
9.54 780
9.6 793
9.66 781
9.72 771
9.78 769
9.84 737
9.9 737
9.96 715
10.02 788
10.08 734
10.14 777
10.2 735
10.26 736
10.32 746
10.38 723
10.44 712
10.5 755
10.56 783
10.62 765
10.68 843
10.74 815
10.8 922
10.86 1072
10.92 1318
10.98 1062
11.04 770
11.1 716
11.16 769
11.22 737
11.28 805
11.34 796
11.4 1011
11.46 898
11.52 775
11.58 667
11.64 731
11.7 738
11.76 664
11.82 696
11.88 714
11.94 718
12 712
12.06 716
12.12 705
12.18 698
12.24 682
12.3 788
12.36 679
12.42 720
12.48 725
12.54 716
12.6 659
12.66 685
12.72 694
12.78 689
12.84 738
12.9 722
12.96 691
13.02 706
13.08 771
13.14 809
13.2 812
13.26 740
13.32 747
13.38 673
13.44 708
13.5 706
13.56 697
13.62 751
13.68 724
13.74 690
13.8 711
13.86 728
13.92 739
13.98 722
14.04 734
14.1 741
14.16 693
14.22 801
14.28 785
14.34 873
14.4 801
14.46 799
14.52 716
14.58 748
14.64 815
14.7 793
14.76 829
14.82 753
14.88 773
14.94 790
15 791
15.06 802
15.12 761
15.18 801
15.24 794
15.3 809
15.36 794
15.42 795
15.48 842
15.54 850
15.6 798
15.66 795
15.72 825
15.78 793
15.84 869
15.9 865
15.96 878
16.02 838
16.08 857
16.14 847
16.2 856
16.26 872
16.32 884
16.38 896
16.44 846
16.5 932
16.56 854
16.62 934
16.68 896
16.74 873
16.8 911
16.86 928
16.92 872
16.98 938
17.04 943
17.1 967
17.16 1009
17.22 950
17.28 951
17.34 915
17.4 938
17.46 948
17.52 916
17.58 941
17.64 944
17.7 998
17.76 962
17.82 988
17.88 1025
17.94 932
18 1005
18.06 1042
18.12 1053
18.18 998
18.24 1047
18.3 1061
18.36 1007
18.42 1105
18.48 1057
18.54 1075
18.6 1048
18.66 1051
18.72 1051
18.78 1088
18.84 1067
18.9 1168
18.96 1112
19.02 1113
19.08 1085
19.14 1071
19.2 1157
19.26 1115
19.32 1177
19.38 1105
19.44 1253
19.5 1239
19.56 1304
19.62 1233
19.68 1237
19.74 1274
19.8 1486
19.86 1433
19.92 1240
19.98 1147
20 1146