File: xrd-UiO-67/pxrddata/78-13.ASC
3 986
3.06 768
3.12 677
3.18 577
3.24 542
3.3 567
3.36 513
3.42 535
3.48 475
3.54 493
3.6 456
3.66 470
3.72 472
3.78 397
3.84 453
3.9 420
3.96 452
4.02 425
4.08 388
4.14 437
4.2 416
4.26 396
4.32 356
4.38 378
4.44 373
4.5 401
4.56 399
4.62 416
4.68 404
4.74 417
4.8 419
4.86 392
4.92 396
4.98 427
5.04 410
5.1 411
5.16 417
5.22 412
5.28 416
5.34 413
5.4 396
5.46 377
5.52 395
5.58 393
5.64 377
5.7 406
5.76 430
5.82 404
5.88 372
5.94 373
6 440
6.06 400
6.12 403
6.18 411
6.24 388
6.3 392
6.36 372
6.42 410
6.48 332
6.54 381
6.6 391
6.66 385
6.72 380
6.78 398
6.84 360
6.9 387
6.96 424
7.02 400
7.08 389
7.14 381
7.2 368
7.26 351
7.32 394
7.38 400
7.44 380
7.5 355
7.56 364
7.62 411
7.68 380
7.74 430
7.8 371
7.86 361
7.92 379
7.98 358
8.04 402
8.1 387
8.16 383
8.22 374
8.28 382
8.34 395
8.4 373
8.46 379
8.52 408
8.58 369
8.64 407
8.7 384
8.76 391
8.82 387
8.88 390
8.94 399
9 372
9.06 370
9.12 413
9.18 370
9.24 420
9.3 415
9.36 463
9.42 380
9.48 417
9.54 394
9.6 413
9.66 434
9.72 374
9.78 383
9.84 403
9.9 414
9.96 392
10.02 359
10.08 375
10.14 411
10.2 372
10.26 421
10.32 383
10.38 412
10.44 401
10.5 392
10.56 437
10.62 421
10.68 419
10.74 414
10.8 431
10.86 414
10.92 411
10.98 382
11.04 407
11.1 420
11.16 378
11.22 422
11.28 370
11.34 400
11.4 393
11.46 397
11.52 422
11.58 419
11.64 407
11.7 444
11.76 434
11.82 402
11.88 453
11.94 407
12 436
12.06 426
12.12 404
12.18 434
12.24 420
12.3 406
12.36 442
12.42 444
12.48 457
12.54 436
12.6 422
12.66 437
12.72 421
12.78 408
12.84 427
12.9 439
12.96 438
13.02 456
13.08 426
13.14 437
13.2 473
13.26 442
13.32 462
13.38 474
13.44 458
13.5 446
13.56 472
13.62 504
13.68 428
13.74 457
13.8 506
13.86 516
13.92 473
13.98 477
14.04 525
14.1 447
14.16 500
14.22 503
14.28 452
14.34 453
14.4 530
14.46 533
14.52 518
14.58 517
14.64 538
14.7 494
14.76 525
14.82 577
14.88 530
14.94 510
15 540
15.06 502
15.12 481
15.18 529
15.24 515
15.3 551
15.36 527
15.42 562
15.48 567
15.54 548
15.6 570
15.66 592
15.72 583
15.78 587
15.84 605
15.9 583
15.96 584
16.02 646
16.08 607
16.14 631
16.2 627
16.26 658
16.32 630
16.38 611
16.44 631
16.5 682
16.56 704
16.62 683
16.68 619
16.74 673
16.8 694
16.86 710
16.92 657
16.98 772
17.04 742
17.1 714
17.16 741
17.22 725
17.28 756
17.34 790
17.4 768
17.46 748
17.52 769
17.58 770
17.64 810
17.7 840
17.76 879
17.82 804
17.88 879
17.94 857
18 885
18.06 872
18.12 866
18.18 859
18.24 879
18.3 899
18.36 891
18.42 886
18.48 945
18.54 946
18.6 929
18.66 998
18.72 980
18.78 985
18.84 1005
18.9 1005
18.96 1042
19.02 984
19.08 1019
19.14 1039
19.2 1003
19.26 1055
19.32 1093
19.38 1043
19.44 1068
19.5 1073
19.56 1091
19.62 1081
19.68 1118
19.74 1082
19.8 1113
19.86 1061
19.92 1087
19.98 1101
20 1106