File: xrd-UiO-67/pxrddata/78-15.ASC
3 1211
3.06 1201
3.12 1215
3.18 1145
3.24 1091
3.3 1061
3.36 1040
3.42 974
3.48 1030
3.54 963
3.6 921
3.66 1020
3.72 903
3.78 883
3.84 885
3.9 852
3.96 910
4.02 771
4.08 800
4.14 837
4.2 783
4.26 837
4.32 757
4.38 738
4.44 733
4.5 724
4.56 762
4.62 695
4.68 724
4.74 759
4.8 727
4.86 671
4.92 742
4.98 748
5.04 739
5.1 809
5.16 814
5.22 808
5.28 828
5.34 854
5.4 899
5.46 1012
5.52 1177
5.58 1326
5.64 1594
5.7 2339
5.76 2281
5.82 812
5.88 711
5.94 688
6 738
6.06 703
6.12 645
6.18 680
6.24 742
6.3 733
6.36 786
6.42 873
6.48 989
6.54 1199
6.6 1586
6.66 944
6.72 670
6.78 657
6.84 665
6.9 647
6.96 581
7.02 557
7.08 608
7.14 572
7.2 605
7.26 594
7.32 551
7.38 590
7.44 594
7.5 551
7.56 596
7.62 594
7.68 589
7.74 586
7.8 571
7.86 541
7.92 552
7.98 581
8.04 602
8.1 539
8.16 584
8.22 522
8.28 506
8.34 532
8.4 588
8.46 533
8.52 544
8.58 569
8.64 570
8.7 583
8.76 528
8.82 529
8.88 541
8.94 562
9 617
9.06 590
9.12 651
9.18 729
9.24 841
9.3 1140
9.36 1118
9.42 606
9.48 567
9.54 553
9.6 563
9.66 550
9.72 515
9.78 549
9.84 520
9.9 507
9.96 482
10.02 513
10.08 522
10.14 541
10.2 488
10.26 555
10.32 520
10.38 509
10.44 549
10.5 531
10.56 538
10.62 587
10.68 581
10.74 659
10.8 739
10.86 875
10.92 1088
10.98 933
11.04 535
11.1 575
11.16 547
11.22 588
11.28 606
11.34 683
11.4 863
11.46 822
11.52 509
11.58 515
11.64 524
11.7 511
11.76 480
11.82 546
11.88 516
11.94 523
12 502
12.06 500
12.12 525
12.18 528
12.24 528
12.3 564
12.36 528
12.42 535
12.48 511
12.54 507
12.6 477
12.66 552
12.72 528
12.78 513
12.84 520
12.9 504
12.96 507
13.02 548
13.08 561
13.14 628
13.2 573
13.26 529
13.32 541
13.38 525
13.44 555
13.5 526
13.56 543
13.62 556
13.68 527
13.74 554
13.8 519
13.86 534
13.92 574
13.98 591
14.04 556
14.1 564
14.16 537
14.22 551
14.28 626
14.34 635
14.4 677
14.46 599
14.52 563
14.58 592
14.64 609
14.7 584
14.76 621
14.82 623
14.88 595
14.94 654
15 620
15.06 633
15.12 593
15.18 581
15.24 610
15.3 600
15.36 617
15.42 637
15.48 676
15.54 657
15.6 668
15.66 640
15.72 670
15.78 634
15.84 693
15.9 646
15.96 659
16.02 663
16.08 625
16.14 734
16.2 659
16.26 681
16.32 695
16.38 707
16.44 735
16.5 659
16.56 762
16.62 732
16.68 707
16.74 705
16.8 705
16.86 717
16.92 742
16.98 814
17.04 772
17.1 874
17.16 875
17.22 817
17.28 813
17.34 815
17.4 772
17.46 812
17.52 819
17.58 790
17.64 815
17.7 871
17.76 817
17.82 813
17.88 836
17.94 873
18 804
18.06 837
18.12 816
18.18 887
18.24 801
18.3 853
18.36 839
18.42 865
18.48 852
18.54 868
18.6 901
18.66 874
18.72 887
18.78 897
18.84 938
18.9 961
18.96 926
19.02 940
19.08 920
19.14 972
19.2 933
19.26 949
19.32 960
19.38 992
19.44 1066
19.5 1307
19.56 1245
19.62 1116
19.68 1060
19.74 1190
19.8 1482
19.86 1393
19.92 1032
19.98 1010
20 1014