File: xrd-UiO-67/pxrddata/78-5.ASC
3 1220
3.06 1122
3.12 1125
3.18 1050
3.24 1061
3.3 961
3.36 982
3.42 935
3.48 935
3.54 954
3.6 853
3.66 893
3.72 855
3.78 888
3.84 854
3.9 844
3.96 882
4.02 863
4.08 876
4.14 806
4.2 794
4.26 721
4.32 744
4.38 672
4.44 761
4.5 741
4.56 724
4.62 754
4.68 742
4.74 785
4.8 763
4.86 778
4.92 796
4.98 827
5.04 935
5.1 945
5.16 1033
5.22 1233
5.28 1312
5.34 1483
5.4 1743
5.46 1800
5.52 2213
5.58 2666
5.64 3627
5.7 6334
5.76 3596
5.82 1316
5.88 971
5.94 875
6 881
6.06 847
6.12 837
6.18 893
6.24 940
6.3 1078
6.36 1209
6.42 1479
6.48 1666
6.54 2393
6.6 3491
6.66 1272
6.72 882
6.78 789
6.84 658
6.9 670
6.96 617
7.02 637
7.08 624
7.14 616
7.2 652
7.26 648
7.32 621
7.38 632
7.44 621
7.5 593
7.56 644
7.62 632
7.68 624
7.74 628
7.8 602
7.86 604
7.92 603
7.98 601
8.04 644
8.1 603
8.16 600
8.22 647
8.28 563
8.34 634
8.4 635
8.46 596
8.52 603
8.58 602
8.64 620
8.7 612
8.76 677
8.82 659
8.88 672
8.94 724
9 769
9.06 885
9.12 1031
9.18 1226
9.24 1606
9.3 2647
9.36 1675
9.42 808
9.48 655
9.54 630
9.6 637
9.66 589
9.72 605
9.78 635
9.84 657
9.9 593
9.96 603
10.02 650
10.08 649
10.14 678
10.2 646
10.26 647
10.32 612
10.38 579
10.44 651
10.5 661
10.56 751
10.62 762
10.68 900
10.74 1066
10.8 1154
10.86 1651
10.92 2511
10.98 1447
11.04 810
11.1 718
11.16 713
11.22 820
11.28 888
11.34 1069
11.4 1545
11.46 1077
11.52 760
11.58 657
11.64 593
11.7 645
11.76 611
11.82 638
11.88 649
11.94 618
12 601
12.06 646
12.12 680
12.18 670
12.24 636
12.3 638
12.36 638
12.42 653
12.48 637
12.54 629
12.6 653
12.66 618
12.72 645
12.78 640
12.84 669
12.9 682
12.96 638
13.02 731
13.08 730
13.14 818
13.2 914
13.26 776
13.32 663
13.38 668
13.44 676
13.5 656
13.56 685
13.62 668
13.68 664
13.74 689
13.8 656
13.86 658
13.92 677
13.98 683
14.04 671
14.1 673
14.16 684
14.22 742
14.28 766
14.34 898
14.4 917
14.46 752
14.52 679
14.58 731
14.64 707
14.7 787
14.76 735
14.82 756
14.88 725
14.94 717
15 727
15.06 749
15.12 715
15.18 700
15.24 766
15.3 733
15.36 720
15.42 747
15.48 764
15.54 769
15.6 734
15.66 777
15.72 774
15.78 720
15.84 758
15.9 735
15.96 811
16.02 858
16.08 818
16.14 829
16.2 797
16.26 855
16.32 824
16.38 836
16.44 817
16.5 866
16.56 885
16.62 860
16.68 811
16.74 816
16.8 838
16.86 929
16.92 945
16.98 858
17.04 990
17.1 1113
17.16 1124
17.22 1040
17.28 946
17.34 892
17.4 920
17.46 934
17.52 914
17.58 920
17.64 996
17.7 1015
17.76 981
17.82 1001
17.88 975
17.94 995
18 1000
18.06 979
18.12 975
18.18 962
18.24 980
18.3 1019
18.36 990
18.42 1082
18.48 1053
18.54 1053
18.6 1121
18.66 1101
18.72 1116
18.78 1098
18.84 1063
18.9 1142
18.96 1145
19.02 1241
19.08 1135
19.14 1164
19.2 1147
19.26 1150
19.32 1268
19.38 1298
19.44 1389
19.5 1633
19.56 1893
19.62 1491
19.68 1387
19.74 1515
19.8 2044
19.86 2003
19.92 1468
19.98 1238
20 1215