File: xrd-UiO-67/pxrddata/8-18.ASC
3 2315
3.06 1851
3.12 1671
3.18 1619
3.24 1484
3.3 1416
3.36 1416
3.42 1379
3.48 1371
3.54 1300
3.6 1258
3.66 1241
3.72 1241
3.78 1228
3.84 1107
3.9 1132
3.96 1114
4.02 1052
4.08 1028
4.14 1035
4.2 1032
4.26 974
4.32 986
4.38 993
4.44 927
4.5 901
4.56 900
4.62 867
4.68 898
4.74 844
4.8 821
4.86 857
4.92 849
4.98 793
5.04 818
5.1 809
5.16 831
5.22 782
5.28 806
5.34 730
5.4 764
5.46 798
5.52 796
5.58 787
5.64 762
5.7 763
5.76 750
5.82 785
5.88 764
5.94 723
6 740
6.06 738
6.12 766
6.18 743
6.24 698
6.3 696
6.36 742
6.42 718
6.48 727
6.54 757
6.6 701
6.66 795
6.72 779
6.78 742
6.84 688
6.9 695
6.96 729
7.02 732
7.08 729
7.14 735
7.2 759
7.26 676
7.32 690
7.38 723
7.44 681
7.5 702
7.56 707
7.62 663
7.68 640
7.74 676
7.8 702
7.86 699
7.92 718
7.98 630
8.04 732
8.1 643
8.16 673
8.22 662
8.28 690
8.34 692
8.4 649
8.46 667
8.52 656
8.58 715
8.64 679
8.7 642
8.76 662
8.82 660
8.88 644
8.94 643
9 624
9.06 638
9.12 659
9.18 652
9.24 669
9.3 652
9.36 625
9.42 624
9.48 667
9.54 684
9.6 622
9.66 672
9.72 668
9.78 616
9.84 632
9.9 594
9.96 599
10.02 642
10.08 619
10.14 607
10.2 642
10.26 597
10.32 635
10.38 638
10.44 614
10.5 630
10.56 600
10.62 596
10.68 629
10.74 672
10.8 624
10.86 573
10.92 602
10.98 585
11.04 601
11.1 597
11.16 594
11.22 575
11.28 594
11.34 593
11.4 640
11.46 637
11.52 628
11.58 589
11.64 513
11.7 555
11.76 593
11.82 649
11.88 567
11.94 594
12 637
12.06 611
12.12 592
12.18 640
12.24 556
12.3 599
12.36 586
12.42 588
12.48 578
12.54 623
12.6 587
12.66 580
12.72 533
12.78 610
12.84 592
12.9 603
12.96 567
13.02 584
13.08 559
13.14 583
13.2 638
13.26 647
13.32 621
13.38 584
13.44 617
13.5 625
13.56 626
13.62 616
13.68 624
13.74 635
13.8 645
13.86 599
13.92 592
13.98 601
14.04 651
14.1 632
14.16 673
14.22 643
14.28 638
14.34 616
14.4 610
14.46 653
14.52 599
14.58 638
14.64 581
14.7 647
14.76 591
14.82 619
14.88 635
14.94 667
15 678
15.06 648
15.12 652
15.18 648
15.24 722
15.3 669
15.36 665
15.42 662
15.48 708
15.54 669
15.6 690
15.66 691
15.72 723
15.78 703
15.84 750
15.9 735
15.96 748
16.02 706
16.08 743
16.14 714
16.2 717
16.26 778
16.32 738
16.38 748
16.44 746
16.5 766
16.56 743
16.62 805
16.68 862
16.74 939
16.8 1130
16.86 1674
16.92 2019
16.98 2072
17.04 2077
17.1 1730
17.16 1416
17.22 1211
17.28 953
17.34 889
17.4 834
17.46 873
17.52 902
17.58 896
17.64 899
17.7 811
17.76 878
17.82 884
17.88 881
17.94 954
18 921
18.06 944
18.12 951
18.18 949
18.24 1003
18.3 1023
18.36 962
18.42 963
18.48 957
18.54 1000
18.6 1012
18.66 995
18.72 1008
18.78 1061
18.84 1031
18.9 1021
18.96 1025
19.02 1027
19.08 1056
19.14 1032
19.2 1038
19.26 1063
19.32 1069
19.38 1093
19.44 1028
19.5 1056
19.56 1064
19.62 1099
19.68 1109
19.74 1112
19.8 1082
19.86 1089
19.92 1131
19.98 1155
20 1175