File: xrd-UiO-67/pxrddata/8-19.ASC
3 2256
3.06 1847
3.12 1606
3.18 1535
3.24 1389
3.3 1342
3.36 1316
3.42 1279
3.48 1231
3.54 1252
3.6 1170
3.66 1072
3.72 1118
3.78 1046
3.84 1063
3.9 1056
3.96 927
4.02 950
4.08 898
4.14 924
4.2 837
4.26 848
4.32 822
4.38 787
4.44 827
4.5 772
4.56 789
4.62 767
4.68 716
4.74 752
4.8 678
4.86 728
4.92 694
4.98 768
5.04 685
5.1 696
5.16 682
5.22 663
5.28 670
5.34 666
5.4 610
5.46 675
5.52 681
5.58 651
5.64 670
5.7 632
5.76 683
5.82 599
5.88 652
5.94 627
6 638
6.06 623
6.12 630
6.18 632
6.24 642
6.3 597
6.36 621
6.42 625
6.48 615
6.54 631
6.6 638
6.66 652
6.72 558
6.78 616
6.84 609
6.9 601
6.96 615
7.02 593
7.08 596
7.14 628
7.2 647
7.26 617
7.32 584
7.38 617
7.44 637
7.5 591
7.56 628
7.62 612
7.68 603
7.74 612
7.8 617
7.86 638
7.92 638
7.98 645
8.04 637
8.1 642
8.16 616
8.22 666
8.28 629
8.34 680
8.4 698
8.46 714
8.52 851
8.58 873
8.64 1043
8.7 1219
8.76 1517
8.82 2217
8.88 2829
8.94 1963
9 1977
9.06 2257
9.12 767
9.18 719
9.24 676
9.3 643
9.36 704
9.42 693
9.48 688
9.54 704
9.6 789
9.66 881
9.72 917
9.78 1112
9.84 1472
9.9 2150
9.96 2725
10.02 1088
10.08 761
10.14 709
10.2 683
10.26 647
10.32 653
10.38 615
10.44 618
10.5 590
10.56 572
10.62 630
10.68 589
10.74 553
10.8 580
10.86 562
10.92 558
10.98 582
11.04 602
11.1 559
11.16 549
11.22 607
11.28 548
11.34 569
11.4 555
11.46 546
11.52 625
11.58 560
11.64 577
11.7 534
11.76 560
11.82 561
11.88 583
11.94 584
12 569
12.06 601
12.12 556
12.18 598
12.24 566
12.3 648
12.36 650
12.42 643
12.48 700
12.54 794
12.6 993
12.66 1042
12.72 763
12.78 673
12.84 590
12.9 601
12.96 605
13.02 617
13.08 663
13.14 640
13.2 705
13.26 866
13.32 1152
13.38 1561
13.44 1529
13.5 731
13.56 631
13.62 577
13.68 594
13.74 563
13.8 611
13.86 625
13.92 637
13.98 583
14.04 614
14.1 610
14.16 653
14.22 581
14.28 644
14.34 602
14.4 614
14.46 621
14.52 614
14.58 611
14.64 627
14.7 612
14.76 620
14.82 637
14.88 642
14.94 636
15 624
15.06 697
15.12 698
15.18 725
15.24 671
15.3 650
15.36 711
15.42 660
15.48 724
15.54 694
15.6 715
15.66 677
15.72 719
15.78 690
15.84 654
15.9 733
15.96 709
16.02 716
16.08 676
16.14 682
16.2 693
16.26 744
16.32 749
16.38 701
16.44 761
16.5 712
16.56 759
16.62 707
16.68 761
16.74 783
16.8 783
16.86 899
16.92 1041
16.98 1166
17.04 1449
17.1 1085
17.16 892
17.22 861
17.28 780
17.34 838
17.4 822
17.46 805
17.52 849
17.58 886
17.64 906
17.7 947
17.76 936
17.82 885
17.88 849
17.94 908
18 941
18.06 948
18.12 878
18.18 954
18.24 1011
18.3 994
18.36 947
18.42 958
18.48 975
18.54 938
18.6 978
18.66 975
18.72 953
18.78 973
18.84 951
18.9 940
18.96 972
19.02 1049
19.08 990
19.14 1008
19.2 991
19.26 1000
19.32 999
19.38 1008
19.44 1024
19.5 1016
19.56 1052
19.62 1112
19.68 1125
19.74 1172
19.8 1371
19.86 1733
19.92 1463
19.98 1416
20 1372