File: xrd-UiO-67/pxrddata/8-20.ASC
3 2606
3.06 2158
3.12 2013
3.18 1855
3.24 1762
3.3 1627
3.36 1502
3.42 1534
3.48 1492
3.54 1351
3.6 1268
3.66 1240
3.72 1236
3.78 1113
3.84 1138
3.9 1052
3.96 1089
4.02 1120
4.08 1011
4.14 1022
4.2 960
4.26 965
4.32 925
4.38 950
4.44 872
4.5 797
4.56 832
4.62 808
4.68 829
4.74 795
4.8 795
4.86 804
4.92 802
4.98 756
5.04 762
5.1 750
5.16 739
5.22 730
5.28 664
5.34 744
5.4 716
5.46 729
5.52 701
5.58 684
5.64 696
5.7 739
5.76 728
5.82 684
5.88 698
5.94 735
6 694
6.06 660
6.12 709
6.18 737
6.24 710
6.3 659
6.36 659
6.42 677
6.48 678
6.54 691
6.6 694
6.66 686
6.72 721
6.78 658
6.84 696
6.9 666
6.96 674
7.02 684
7.08 694
7.14 699
7.2 664
7.26 714
7.32 653
7.38 689
7.44 705
7.5 679
7.56 631
7.62 652
7.68 668
7.74 670
7.8 657
7.86 645
7.92 669
7.98 706
8.04 720
8.1 705
8.16 722
8.22 703
8.28 735
8.34 775
8.4 847
8.46 921
8.52 966
8.58 1211
8.64 1305
8.7 1790
8.76 2357
8.82 2895
8.88 2025
8.94 2314
9 2167
9.06 1017
9.12 903
9.18 907
9.24 909
9.3 894
9.36 831
9.42 810
9.48 864
9.54 902
9.6 965
9.66 1140
9.72 1361
9.78 1720
9.84 2502
9.9 2812
9.96 1405
10.02 920
10.08 810
10.14 731
10.2 742
10.26 701
10.32 679
10.38 641
10.44 631
10.5 665
10.56 641
10.62 638
10.68 673
10.74 639
10.8 649
10.86 701
10.92 620
10.98 594
11.04 668
11.1 611
11.16 610
11.22 611
11.28 608
11.34 611
11.4 614
11.46 621
11.52 596
11.58 564
11.64 570
11.7 633
11.76 572
11.82 607
11.88 621
11.94 653
12 652
12.06 658
12.12 590
12.18 689
12.24 627
12.3 677
12.36 678
12.42 729
12.48 875
12.54 1040
12.6 933
12.66 820
12.72 763
12.78 675
12.84 671
12.9 686
12.96 682
13.02 662
13.08 762
13.14 777
13.2 914
13.26 1027
13.32 1422
13.38 1268
13.44 748
13.5 678
13.56 643
13.62 616
13.68 625
13.74 652
13.8 658
13.86 654
13.92 679
13.98 642
14.04 605
14.1 639
14.16 617
14.22 622
14.28 674
14.34 666
14.4 653
14.46 700
14.52 654
14.58 649
14.64 669
14.7 704
14.76 632
14.82 659
14.88 689
14.94 638
15 668
15.06 647
15.12 665
15.18 703
15.24 709
15.3 729
15.36 726
15.42 731
15.48 696
15.54 700
15.6 699
15.66 692
15.72 734
15.78 741
15.84 721
15.9 668
15.96 712
16.02 658
16.08 740
16.14 747
16.2 747
16.26 756
16.32 746
16.38 772
16.44 801
16.5 771
16.56 758
16.62 773
16.68 835
16.74 923
16.8 873
16.86 989
16.92 1337
16.98 1614
17.04 1138
17.1 815
17.16 876
17.22 833
17.28 791
17.34 840
17.4 806
17.46 830
17.52 845
17.58 882
17.64 948
17.7 927
17.76 913
17.82 921
17.88 945
17.94 976
18 972
18.06 939
18.12 967
18.18 958
18.24 1053
18.3 936
18.36 967
18.42 991
18.48 965
18.54 935
18.6 974
18.66 1032
18.72 995
18.78 957
18.84 969
18.9 1017
18.96 1022
19.02 977
19.08 1007
19.14 1040
19.2 1033
19.26 1013
19.32 1107
19.38 1057
19.44 1094
19.5 1072
19.56 1134
19.62 1211
19.68 1193
19.74 1456
19.8 1500
19.86 1398
19.92 1331
19.98 1446
20 1402