File: xrd-UiO-67/pxrddata/9-10.ASC
3 2244
3.06 1949
3.12 1667
3.18 1628
3.24 1610
3.3 1560
3.36 1527
3.42 1540
3.48 1483
3.54 1442
3.6 1362
3.66 1281
3.72 1312
3.78 1261
3.84 1222
3.9 1316
3.96 1232
4.02 1222
4.08 1140
4.14 1147
4.2 1158
4.26 1163
4.32 1123
4.38 1132
4.44 1079
4.5 1090
4.56 1092
4.62 1097
4.68 1069
4.74 1082
4.8 1038
4.86 1067
4.92 1092
4.98 1066
5.04 1081
5.1 1007
5.16 1034
5.22 1040
5.28 1099
5.34 991
5.4 1011
5.46 1035
5.52 957
5.58 1030
5.64 1037
5.7 1027
5.76 1072
5.82 1116
5.88 1011
5.94 1019
6 1087
6.06 1024
6.12 1069
6.18 1002
6.24 1066
6.3 1019
6.36 1066
6.42 1050
6.48 1081
6.54 1043
6.6 1015
6.66 1056
6.72 1059
6.78 1042
6.84 1052
6.9 1056
6.96 1029
7.02 1054
7.08 1057
7.14 989
7.2 998
7.26 1051
7.32 1019
7.38 1052
7.44 998
7.5 1039
7.56 1059
7.62 1048
7.68 1054
7.74 1002
7.8 1036
7.86 1030
7.92 1036
7.98 978
8.04 1043
8.1 1019
8.16 1049
8.22 992
8.28 990
8.34 965
8.4 993
8.46 974
8.52 979
8.58 994
8.64 950
8.7 961
8.76 964
8.82 938
8.88 976
8.94 998
9 948
9.06 946
9.12 923
9.18 956
9.24 966
9.3 904
9.36 944
9.42 929
9.48 910
9.54 843
9.6 886
9.66 872
9.72 892
9.78 863
9.84 849
9.9 889
9.96 860
10.02 849
10.08 892
10.14 832
10.2 856
10.26 831
10.32 843
10.38 874
10.44 802
10.5 828
10.56 780
10.62 844
10.68 772
10.74 865
10.8 824
10.86 806
10.92 825
10.98 803
11.04 738
11.1 722
11.16 776
11.22 773
11.28 793
11.34 766
11.4 764
11.46 725
11.52 728
11.58 766
11.64 784
11.7 798
11.76 685
11.82 705
11.88 741
11.94 743
12 721
12.06 775
12.12 757
12.18 738
12.24 729
12.3 703
12.36 794
12.42 781
12.48 753
12.54 785
12.6 755
12.66 753
12.72 799
12.78 790
12.84 709
12.9 742
12.96 765
13.02 790
13.08 779
13.14 787
13.2 807
13.26 782
13.32 837
13.38 803
13.44 802
13.5 805
13.56 809
13.62 788
13.68 807
13.74 789
13.8 778
13.86 824
13.92 813
13.98 804
14.04 764
14.1 817
14.16 858
14.22 801
14.28 869
14.34 830
14.4 835
14.46 841
14.52 823
14.58 813
14.64 826
14.7 850
14.76 878
14.82 907
14.88 847
14.94 885
15 863
15.06 881
15.12 891
15.18 950
15.24 952
15.3 937
15.36 940
15.42 926
15.48 942
15.54 984
15.6 932
15.66 943
15.72 904
15.78 979
15.84 952
15.9 968
15.96 976
16.02 1022
16.08 1015
16.14 951
16.2 983
16.26 1074
16.32 1036
16.38 1065
16.44 1062
16.5 1063
16.56 1120
16.62 1212
16.68 1190
16.74 1337
16.8 1685
16.86 2322
16.92 2510
16.98 2791
17.04 2849
17.1 1535
17.16 1281
17.22 1286
17.28 1182
17.34 1175
17.4 1204
17.46 1282
17.52 1238
17.58 1173
17.64 1255
17.7 1263
17.76 1232
17.82 1373
17.88 1310
17.94 1280
18 1331
18.06 1323
18.12 1322
18.18 1325
18.24 1408
18.3 1369
18.36 1370
18.42 1349
18.48 1460
18.54 1406
18.6 1471
18.66 1365
18.72 1465
18.78 1474
18.84 1433
18.9 1442
18.96 1429
19.02 1579
19.08 1603
19.14 1509
19.2 1522
19.26 1486
19.32 1572
19.38 1520
19.44 1528
19.5 1538
19.56 1537
19.62 1542
19.68 1589
19.74 1537
19.8 1553
19.86 1601
19.92 1574
19.98 1579
20 1580