File: xrd-UiO-67/pxrddata/9-11.ASC
3 2049
3.06 1634
3.12 1420
3.18 1389
3.24 1340
3.3 1237
3.36 1197
3.42 1168
3.48 1094
3.54 1033
3.6 1025
3.66 1090
3.72 1014
3.78 981
3.84 952
3.9 950
3.96 943
4.02 881
4.08 924
4.14 879
4.2 811
4.26 795
4.32 864
4.38 820
4.44 720
4.5 822
4.56 778
4.62 774
4.68 704
4.74 689
4.8 748
4.86 724
4.92 662
4.98 717
5.04 728
5.1 725
5.16 693
5.22 694
5.28 743
5.34 679
5.4 717
5.46 711
5.52 711
5.58 752
5.64 716
5.7 711
5.76 732
5.82 806
5.88 805
5.94 768
6 783
6.06 776
6.12 806
6.18 832
6.24 881
6.3 927
6.36 959
6.42 1033
6.48 1094
6.54 1216
6.6 1113
6.66 1113
6.72 1046
6.78 979
6.84 973
6.9 914
6.96 965
7.02 903
7.08 883
7.14 846
7.2 880
7.26 861
7.32 854
7.38 825
7.44 881
7.5 833
7.56 905
7.62 831
7.68 817
7.74 869
7.8 869
7.86 918
7.92 867
7.98 846
8.04 858
8.1 861
8.16 903
8.22 886
8.28 915
8.34 911
8.4 918
8.46 920
8.52 978
8.58 1091
8.64 1086
8.7 1209
8.76 1328
8.82 1587
8.88 1916
8.94 2718
9 3318
9.06 2408
9.12 1891
9.18 1671
9.24 1546
9.3 1487
9.36 1364
9.42 1303
9.48 1248
9.54 1253
9.6 1246
9.66 1308
9.72 1278
9.78 1384
9.84 1431
9.9 1504
9.96 1602
10.02 1592
10.08 1581
10.14 1566
10.2 1359
10.26 1318
10.32 1286
10.38 1243
10.44 1287
10.5 1244
10.56 1245
10.62 1258
10.68 1302
10.74 1287
10.8 1309
10.86 1292
10.92 1365
10.98 1362
11.04 1280
11.1 1234
11.16 1114
11.22 1055
11.28 953
11.34 923
11.4 899
11.46 821
11.52 846
11.58 786
11.64 804
11.7 788
11.76 781
11.82 764
11.88 770
11.94 793
12 763
12.06 829
12.12 786
12.18 759
12.24 786
12.3 827
12.36 851
12.42 973
12.48 952
12.54 1149
12.6 1427
12.66 1770
12.72 1714
12.78 1212
12.84 1020
12.9 971
12.96 966
13.02 954
13.08 879
13.14 879
13.2 851
13.26 845
13.32 847
13.38 862
13.44 799
13.5 894
13.56 856
13.62 878
13.68 844
13.74 844
13.8 819
13.86 870
13.92 880
13.98 860
14.04 873
14.1 867
14.16 888
14.22 882
14.28 921
14.34 860
14.4 890
14.46 873
14.52 894
14.58 921
14.64 909
14.7 864
14.76 846
14.82 833
14.88 902
14.94 879
15 840
15.06 864
15.12 886
15.18 849
15.24 866
15.3 843
15.36 905
15.42 865
15.48 894
15.54 878
15.6 852
15.66 834
15.72 899
15.78 863
15.84 877
15.9 894
15.96 949
16.02 882
16.08 946
16.14 834
16.2 945
16.26 993
16.32 936
16.38 993
16.44 950
16.5 931
16.56 1021
16.62 943
16.68 978
16.74 983
16.8 1047
16.86 1162
16.92 1358
16.98 1703
17.04 2201
17.1 1675
17.16 1206
17.22 1142
17.28 1066
17.34 1060
17.4 1055
17.46 1087
17.52 1128
17.58 1085
17.64 1038
17.7 1100
17.76 1118
17.82 1160
17.88 1253
17.94 1214
18 1181
18.06 1173
18.12 1189
18.18 1200
18.24 1268
18.3 1290
18.36 1300
18.42 1283
18.48 1252
18.54 1391
18.6 1313
18.66 1329
18.72 1323
18.78 1329
18.84 1358
18.9 1445
18.96 1465
19.02 1395
19.08 1433
19.14 1427
19.2 1487
19.26 1411
19.32 1439
19.38 1522
19.44 1414
19.5 1538
19.56 1414
19.62 1557
19.68 1560
19.74 1495
19.8 1516
19.86 1524
19.92 1587
19.98 1661
20 1646