File: xrd-UiO-67/pxrddata/9-12.ASC
3 2257
3.06 1821
3.12 1623
3.18 1602
3.24 1502
3.3 1337
3.36 1334
3.42 1253
3.48 1186
3.54 1210
3.6 1150
3.66 1135
3.72 1097
3.78 1024
3.84 1016
3.9 966
3.96 945
4.02 915
4.08 838
4.14 816
4.2 796
4.26 798
4.32 803
4.38 746
4.44 794
4.5 737
4.56 732
4.62 716
4.68 681
4.74 666
4.8 730
4.86 657
4.92 631
4.98 638
5.04 647
5.1 594
5.16 619
5.22 635
5.28 630
5.34 651
5.4 625
5.46 617
5.52 614
5.58 602
5.64 609
5.7 616
5.76 654
5.82 624
5.88 592
5.94 612
6 585
6.06 623
6.12 612
6.18 591
6.24 573
6.3 613
6.36 575
6.42 632
6.48 567
6.54 575
6.6 623
6.66 628
6.72 593
6.78 578
6.84 601
6.9 568
6.96 555
7.02 579
7.08 553
7.14 518
7.2 579
7.26 597
7.32 591
7.38 613
7.44 623
7.5 597
7.56 570
7.62 597
7.68 593
7.74 546
7.8 558
7.86 603
7.92 552
7.98 584
8.04 586
8.1 549
8.16 551
8.22 572
8.28 597
8.34 615
8.4 616
8.46 632
8.52 595
8.58 648
8.64 721
8.7 822
8.76 909
8.82 1046
8.88 1012
8.94 1080
9 1137
9.06 997
9.12 857
9.18 704
9.24 737
9.3 726
9.36 719
9.42 711
9.48 658
9.54 639
9.6 633
9.66 729
9.72 676
9.78 786
9.84 896
9.9 1082
9.96 1074
10.02 919
10.08 733
10.14 647
10.2 603
10.26 649
10.32 589
10.38 565
10.44 600
10.5 532
10.56 555
10.62 586
10.68 519
10.74 570
10.8 577
10.86 571
10.92 589
10.98 556
11.04 556
11.1 515
11.16 549
11.22 536
11.28 530
11.34 514
11.4 518
11.46 486
11.52 501
11.58 560
11.64 570
11.7 528
11.76 521
11.82 530
11.88 532
11.94 515
12 518
12.06 513
12.12 498
12.18 509
12.24 557
12.3 527
12.36 531
12.42 519
12.48 571
12.54 604
12.6 659
12.66 645
12.72 650
12.78 648
12.84 575
12.9 547
12.96 493
13.02 578
13.08 557
13.14 583
13.2 567
13.26 617
13.32 659
13.38 666
13.44 629
13.5 546
13.56 550
13.62 556
13.68 559
13.74 556
13.8 540
13.86 521
13.92 516
13.98 506
14.04 516
14.1 553
14.16 551
14.22 494
14.28 535
14.34 526
14.4 574
14.46 609
14.52 559
14.58 554
14.64 541
14.7 576
14.76 558
14.82 571
14.88 572
14.94 500
15 560
15.06 559
15.12 602
15.18 549
15.24 581
15.3 609
15.36 545
15.42 612
15.48 575
15.54 595
15.6 614
15.66 576
15.72 598
15.78 583
15.84 639
15.9 576
15.96 565
16.02 627
16.08 647
16.14 610
16.2 598
16.26 644
16.32 638
16.38 630
16.44 571
16.5 630
16.56 626
16.62 675
16.68 684
16.74 699
16.8 739
16.86 873
16.92 1134
16.98 1522
17.04 1651
17.1 1141
17.16 846
17.22 691
17.28 740
17.34 702
17.4 763
17.46 694
17.52 710
17.58 723
17.64 720
17.7 670
17.76 756
17.82 782
17.88 747
17.94 763
18 761
18.06 777
18.12 759
18.18 754
18.24 754
18.3 757
18.36 783
18.42 812
18.48 765
18.54 830
18.6 831
18.66 813
18.72 829
18.78 892
18.84 789
18.9 799
18.96 841
19.02 784
19.08 857
19.14 822
19.2 821
19.26 839
19.32 858
19.38 880
19.44 962
19.5 880
19.56 940
19.62 928
19.68 902
19.74 975
19.8 970
19.86 1032
19.92 989
19.98 1027
20 968