File: xrd-UiO-67/pxrddata/9-16.ASC
3 2075
3.06 1596
3.12 1470
3.18 1361
3.24 1372
3.3 1285
3.36 1219
3.42 1156
3.48 1219
3.54 1100
3.6 1098
3.66 1058
3.72 1012
3.78 993
3.84 1001
3.9 934
3.96 936
4.02 905
4.08 870
4.14 861
4.2 820
4.26 768
4.32 794
4.38 733
4.44 761
4.5 689
4.56 700
4.62 670
4.68 712
4.74 719
4.8 673
4.86 640
4.92 692
4.98 659
5.04 658
5.1 671
5.16 630
5.22 612
5.28 657
5.34 610
5.4 630
5.46 626
5.52 607
5.58 605
5.64 599
5.7 602
5.76 636
5.82 621
5.88 585
5.94 617
6 610
6.06 612
6.12 573
6.18 624
6.24 575
6.3 581
6.36 586
6.42 547
6.48 598
6.54 571
6.6 540
6.66 585
6.72 587
6.78 580
6.84 585
6.9 553
6.96 605
7.02 567
7.08 598
7.14 533
7.2 607
7.26 601
7.32 592
7.38 622
7.44 561
7.5 554
7.56 585
7.62 549
7.68 585
7.74 594
7.8 547
7.86 561
7.92 624
7.98 561
8.04 572
8.1 552
8.16 575
8.22 553
8.28 607
8.34 583
8.4 577
8.46 629
8.52 574
8.58 621
8.64 668
8.7 727
8.76 814
8.82 921
8.88 1143
8.94 1385
9 1530
9.06 1555
9.12 1371
9.18 1027
9.24 793
9.3 772
9.36 668
9.42 625
9.48 625
9.54 658
9.6 653
9.66 716
9.72 770
9.78 815
9.84 860
9.9 1079
9.96 1210
10.02 1324
10.08 1176
10.14 901
10.2 661
10.26 623
10.32 593
10.38 543
10.44 550
10.5 545
10.56 550
10.62 515
10.68 553
10.74 506
10.8 516
10.86 523
10.92 520
10.98 541
11.04 536
11.1 531
11.16 499
11.22 509
11.28 495
11.34 511
11.4 490
11.46 494
11.52 480
11.58 492
11.64 460
11.7 477
11.76 509
11.82 527
11.88 503
11.94 497
12 475
12.06 520
12.12 467
12.18 486
12.24 462
12.3 477
12.36 489
12.42 548
12.48 568
12.54 529
12.6 625
12.66 601
12.72 691
12.78 602
12.84 562
12.9 556
12.96 521
13.02 579
13.08 552
13.14 539
13.2 541
13.26 559
13.32 591
13.38 624
13.44 632
13.5 574
13.56 484
13.62 507
13.68 494
13.74 497
13.8 519
13.86 557
13.92 536
13.98 497
14.04 496
14.1 486
14.16 534
14.22 490
14.28 496
14.34 531
14.4 521
14.46 520
14.52 490
14.58 530
14.64 551
14.7 521
14.76 538
14.82 509
14.88 535
14.94 535
15 516
15.06 533
15.12 555
15.18 524
15.24 551
15.3 516
15.36 560
15.42 544
15.48 545
15.54 571
15.6 571
15.66 506
15.72 545
15.78 547
15.84 560
15.9 516
15.96 547
16.02 550
16.08 539
16.14 579
16.2 563
16.26 548
16.32 575
16.38 600
16.44 622
16.5 596
16.56 629
16.62 639
16.68 661
16.74 632
16.8 730
16.86 858
16.92 1057
16.98 1348
17.04 1620
17.1 1802
17.16 1484
17.22 891
17.28 730
17.34 732
17.4 714
17.46 741
17.52 686
17.58 688
17.64 687
17.7 680
17.76 680
17.82 662
17.88 701
17.94 670
18 674
18.06 698
18.12 721
18.18 708
18.24 717
18.3 689
18.36 678
18.42 714
18.48 710
18.54 699
18.6 733
18.66 697
18.72 732
18.78 702
18.84 742
18.9 737
18.96 756
19.02 744
19.08 730
19.14 709
19.2 782
19.26 771
19.32 829
19.38 809
19.44 791
19.5 820
19.56 799
19.62 798
19.68 845
19.74 823
19.8 858
19.86 869
19.92 922
19.98 967
20 998