File: xrd-UiO-67/pxrddata/9-18.ASC
3 2506
3.06 2169
3.12 1872
3.18 1694
3.24 1583
3.3 1533
3.36 1479
3.42 1338
3.48 1350
3.54 1250
3.6 1292
3.66 1185
3.72 1143
3.78 1096
3.84 1096
3.9 1017
3.96 1021
4.02 952
4.08 948
4.14 874
4.2 873
4.26 865
4.32 806
4.38 777
4.44 803
4.5 744
4.56 750
4.62 722
4.68 747
4.74 706
4.8 696
4.86 710
4.92 658
4.98 654
5.04 648
5.1 641
5.16 642
5.22 617
5.28 601
5.34 629
5.4 609
5.46 635
5.52 544
5.58 599
5.64 597
5.7 585
5.76 609
5.82 622
5.88 585
5.94 600
6 601
6.06 606
6.12 574
6.18 586
6.24 588
6.3 584
6.36 548
6.42 553
6.48 543
6.54 614
6.6 603
6.66 527
6.72 538
6.78 578
6.84 578
6.9 570
6.96 580
7.02 523
7.08 552
7.14 529
7.2 611
7.26 524
7.32 548
7.38 576
7.44 546
7.5 552
7.56 532
7.62 563
7.68 563
7.74 576
7.8 526
7.86 514
7.92 561
7.98 576
8.04 532
8.1 547
8.16 550
8.22 572
8.28 597
8.34 555
8.4 603
8.46 564
8.52 589
8.58 664
8.64 716
8.7 784
8.76 912
8.82 1087
8.88 1292
8.94 1456
9 1527
9.06 1104
9.12 817
9.18 811
9.24 692
9.3 678
9.36 643
9.42 638
9.48 635
9.54 590
9.6 647
9.66 668
9.72 767
9.78 848
9.84 941
9.9 1217
9.96 1149
10.02 795
10.08 621
10.14 568
10.2 504
10.26 540
10.32 494
10.38 484
10.44 458
10.5 492
10.56 482
10.62 485
10.68 541
10.74 472
10.8 512
10.86 502
10.92 490
10.98 513
11.04 496
11.1 457
11.16 490
11.22 445
11.28 495
11.34 438
11.4 467
11.46 477
11.52 447
11.58 422
11.64 475
11.7 433
11.76 442
11.82 461
11.88 459
11.94 473
12 459
12.06 471
12.12 487
12.18 471
12.24 450
12.3 448
12.36 427
12.42 486
12.48 511
12.54 552
12.6 608
12.66 549
12.72 559
12.78 523
12.84 540
12.9 486
12.96 461
13.02 505
13.08 508
13.14 557
13.2 500
13.26 576
13.32 610
13.38 663
13.44 583
13.5 559
13.56 502
13.62 476
13.68 444
13.74 433
13.8 464
13.86 482
13.92 439
13.98 463
14.04 457
14.1 445
14.16 468
14.22 451
14.28 481
14.34 421
14.4 510
14.46 455
14.52 438
14.58 496
14.64 504
14.7 477
14.76 471
14.82 486
14.88 480
14.94 449
15 486
15.06 489
15.12 444
15.18 453
15.24 524
15.3 487
15.36 478
15.42 514
15.48 503
15.54 499
15.6 495
15.66 508
15.72 516
15.78 501
15.84 495
15.9 491
15.96 514
16.02 560
16.08 522
16.14 506
16.2 500
16.26 558
16.32 527
16.38 477
16.44 556
16.5 495
16.56 544
16.62 520
16.68 512
16.74 614
16.8 606
16.86 681
16.92 802
16.98 901
17.04 731
17.1 582
17.16 571
17.22 546
17.28 540
17.34 599
17.4 551
17.46 542
17.52 537
17.58 614
17.64 604
17.7 613
17.76 606
17.82 604
17.88 650
17.94 611
18 581
18.06 615
18.12 609
18.18 643
18.24 616
18.3 654
18.36 685
18.42 648
18.48 672
18.54 635
18.6 679
18.66 646
18.72 636
18.78 658
18.84 626
18.9 655
18.96 651
19.02 659
19.08 693
19.14 655
19.2 666
19.26 663
19.32 628
19.38 689
19.44 711
19.5 698
19.56 653
19.62 738
19.68 754
19.74 798
19.8 898
19.86 888
19.92 938
19.98 866
20 906