File: xrd-UiO-67/pxrddata/9-19.ASC
3 2397
3.06 2033
3.12 1760
3.18 1710
3.24 1676
3.3 1540
3.36 1462
3.42 1483
3.48 1330
3.54 1371
3.6 1355
3.66 1263
3.72 1241
3.78 1226
3.84 1141
3.9 1110
3.96 1134
4.02 1061
4.08 1009
4.14 1003
4.2 1034
4.26 962
4.32 950
4.38 905
4.44 954
4.5 914
4.56 887
4.62 870
4.68 842
4.74 828
4.8 840
4.86 823
4.92 837
4.98 823
5.04 778
5.1 740
5.16 764
5.22 729
5.28 790
5.34 722
5.4 772
5.46 771
5.52 778
5.58 783
5.64 780
5.7 768
5.76 759
5.82 716
5.88 719
5.94 669
6 784
6.06 746
6.12 751
6.18 730
6.24 748
6.3 667
6.36 717
6.42 743
6.48 733
6.54 728
6.6 709
6.66 734
6.72 760
6.78 688
6.84 681
6.9 724
6.96 681
7.02 719
7.08 722
7.14 699
7.2 721
7.26 729
7.32 699
7.38 739
7.44 749
7.5 690
7.56 687
7.62 738
7.68 689
7.74 695
7.8 714
7.86 771
7.92 682
7.98 707
8.04 723
8.1 736
8.16 676
8.22 712
8.28 721
8.34 735
8.4 716
8.46 750
8.52 753
8.58 784
8.64 765
8.7 869
8.76 885
8.82 978
8.88 1138
8.94 1292
9 1276
9.06 1225
9.12 1100
9.18 977
9.24 937
9.3 889
9.36 844
9.42 802
9.48 809
9.54 809
9.6 800
9.66 867
9.72 932
9.78 964
9.84 983
9.9 1049
9.96 1154
10.02 1224
10.08 1117
10.14 992
10.2 883
10.26 769
10.32 729
10.38 737
10.44 699
10.5 750
10.56 712
10.62 684
10.68 642
10.74 708
10.8 687
10.86 650
10.92 702
10.98 735
11.04 637
11.1 706
11.16 639
11.22 669
11.28 693
11.34 701
11.4 698
11.46 687
11.52 675
11.58 700
11.64 705
11.7 681
11.76 643
11.82 694
11.88 713
11.94 693
12 671
12.06 678
12.12 688
12.18 668
12.24 685
12.3 682
12.36 720
12.42 689
12.48 715
12.54 744
12.6 740
12.66 853
12.72 747
12.78 721
12.84 694
12.9 720
12.96 690
13.02 718
13.08 751
13.14 735
13.2 707
13.26 726
13.32 723
13.38 783
13.44 684
13.5 690
13.56 738
13.62 709
13.68 709
13.74 709
13.8 718
13.86 693
13.92 709
13.98 739
14.04 781
14.1 677
14.16 722
14.22 743
14.28 732
14.34 673
14.4 748
14.46 708
14.52 752
14.58 772
14.64 716
14.7 744
14.76 723
14.82 736
14.88 695
14.94 773
15 732
15.06 768
15.12 783
15.18 790
15.24 772
15.3 801
15.36 777
15.42 801
15.48 780
15.54 756
15.6 868
15.66 759
15.72 763
15.78 822
15.84 796
15.9 789
15.96 799
16.02 793
16.08 872
16.14 866
16.2 792
16.26 852
16.32 859
16.38 826
16.44 848
16.5 877
16.56 889
16.62 915
16.68 900
16.74 901
16.8 904
16.86 1026
16.92 1111
16.98 1445
17.04 1554
17.1 1441
17.16 1108
17.22 1017
17.28 971
17.34 965
17.4 989
17.46 949
17.52 984
17.58 987
17.64 1040
17.7 1023
17.76 1059
17.82 1056
17.88 1055
17.94 1053
18 1079
18.06 1050
18.12 1122
18.18 1101
18.24 1122
18.3 1119
18.36 1080
18.42 1078
18.48 1145
18.54 1195
18.6 1171
18.66 1184
18.72 1166
18.78 1179
18.84 1213
18.9 1192
18.96 1127
19.02 1219
19.08 1298
19.14 1201
19.2 1225
19.26 1259
19.32 1242
19.38 1222
19.44 1224
19.5 1249
19.56 1309
19.62 1334
19.68 1370
19.74 1373
19.8 1455
19.86 1414
19.92 1397
19.98 1424
20 1517