File: xrd-UiO-67/pxrddata/9-3.ASC
3 1911
3.06 1628
3.12 1479
3.18 1371
3.24 1322
3.3 1341
3.36 1213
3.42 1182
3.48 1114
3.54 1175
3.6 1057
3.66 1073
3.72 990
3.78 980
3.84 1020
3.9 969
3.96 930
4.02 871
4.08 945
4.14 806
4.2 845
4.26 856
4.32 853
4.38 741
4.44 823
4.5 712
4.56 739
4.62 734
4.68 722
4.74 731
4.8 707
4.86 747
4.92 713
4.98 764
5.04 671
5.1 683
5.16 638
5.22 697
5.28 676
5.34 663
5.4 669
5.46 655
5.52 656
5.58 664
5.64 639
5.7 632
5.76 652
5.82 642
5.88 630
5.94 649
6 633
6.06 655
6.12 660
6.18 651
6.24 651
6.3 669
6.36 687
6.42 646
6.48 672
6.54 676
6.6 635
6.66 626
6.72 624
6.78 633
6.84 687
6.9 619
6.96 643
7.02 652
7.08 675
7.14 678
7.2 619
7.26 636
7.32 649
7.38 653
7.44 654
7.5 653
7.56 631
7.62 658
7.68 611
7.74 664
7.8 679
7.86 666
7.92 645
7.98 633
8.04 633
8.1 630
8.16 652
8.22 666
8.28 633
8.34 635
8.4 649
8.46 630
8.52 618
8.58 681
8.64 671
8.7 688
8.76 709
8.82 782
8.88 909
8.94 1014
9 1138
9.06 1274
9.12 1339
9.18 1092
9.24 879
9.3 728
9.36 682
9.42 708
9.48 719
9.54 754
9.6 728
9.66 755
9.72 810
9.78 873
9.84 898
9.9 941
9.96 1129
10.02 1184
10.08 1285
10.14 1027
10.2 852
10.26 719
10.32 704
10.38 651
10.44 605
10.5 634
10.56 685
10.62 663
10.68 649
10.74 655
10.8 636
10.86 646
10.92 623
10.98 601
11.04 622
11.1 632
11.16 623
11.22 657
11.28 620
11.34 644
11.4 607
11.46 654
11.52 662
11.58 627
11.64 654
11.7 632
11.76 627
11.82 570
11.88 653
11.94 603
12 599
12.06 634
12.12 599
12.18 681
12.24 602
12.3 633
12.36 599
12.42 628
12.48 599
12.54 704
12.6 699
12.66 747
12.72 772
12.78 673
12.84 687
12.9 695
12.96 656
13.02 632
13.08 603
13.14 678
13.2 657
13.26 662
13.32 670
13.38 682
13.44 684
13.5 683
13.56 630
13.62 642
13.68 680
13.74 694
13.8 645
13.86 631
13.92 668
13.98 655
14.04 640
14.1 657
14.16 651
14.22 695
14.28 632
14.34 634
14.4 654
14.46 661
14.52 709
14.58 683
14.64 626
14.7 618
14.76 682
14.82 679
14.88 695
14.94 726
15 636
15.06 694
15.12 629
15.18 626
15.24 726
15.3 708
15.36 690
15.42 702
15.48 722
15.54 682
15.6 720
15.66 720
15.72 708
15.78 740
15.84 710
15.9 757
15.96 756
16.02 748
16.08 734
16.14 765
16.2 708
16.26 764
16.32 755
16.38 791
16.44 734
16.5 785
16.56 771
16.62 762
16.68 820
16.74 793
16.8 835
16.86 872
16.92 883
16.98 1001
17.04 1075
17.1 1175
17.16 1132
17.22 948
17.28 871
17.34 834
17.4 864
17.46 853
17.52 928
17.58 866
17.64 832
17.7 921
17.76 938
17.82 874
17.88 969
17.94 894
18 939
18.06 935
18.12 943
18.18 992
18.24 913
18.3 1028
18.36 969
18.42 1014
18.48 1041
18.54 1016
18.6 985
18.66 1030
18.72 1059
18.78 1003
18.84 1007
18.9 994
18.96 1076
19.02 1026
19.08 1124
19.14 1124
19.2 1119
19.26 1071
19.32 1128
19.38 1090
19.44 1147
19.5 1083
19.56 1160
19.62 1119
19.68 1223
19.74 1139
19.8 1263
19.86 1212
19.92 1353
19.98 1339
20 1322