File: xrd-UiO-67/pxrddata/9-4.ASC
3 1939
3.06 1625
3.12 1395
3.18 1348
3.24 1281
3.3 1254
3.36 1246
3.42 1167
3.48 1130
3.54 1079
3.6 1089
3.66 1017
3.72 1025
3.78 993
3.84 927
3.9 978
3.96 949
4.02 930
4.08 867
4.14 834
4.2 881
4.26 835
4.32 798
4.38 838
4.44 808
4.5 756
4.56 783
4.62 754
4.68 738
4.74 739
4.8 723
4.86 695
4.92 715
4.98 692
5.04 771
5.1 785
5.16 753
5.22 831
5.28 861
5.34 1000
5.4 1108
5.46 1290
5.52 1466
5.58 1511
5.64 1285
5.7 1334
5.76 1375
5.82 1418
5.88 1312
5.94 1061
6 884
6.06 710
6.12 695
6.18 693
6.24 706
6.3 660
6.36 650
6.42 613
6.48 682
6.54 661
6.6 676
6.66 673
6.72 705
6.78 787
6.84 768
6.9 776
6.96 800
7.02 795
7.08 840
7.14 787
7.2 867
7.26 842
7.32 904
7.38 849
7.44 891
7.5 819
7.56 841
7.62 760
7.68 731
7.74 659
7.8 648
7.86 649
7.92 603
7.98 619
8.04 664
8.1 577
8.16 574
8.22 569
8.28 611
8.34 594
8.4 598
8.46 605
8.52 592
8.58 561
8.64 587
8.7 573
8.76 574
8.82 589
8.88 564
8.94 558
9 564
9.06 608
9.12 614
9.18 623
9.24 634
9.3 710
9.36 805
9.42 900
9.48 944
9.54 635
9.6 599
9.66 637
9.72 626
9.78 550
9.84 580
9.9 586
9.96 580
10.02 582
10.08 575
10.14 597
10.2 626
10.26 600
10.32 578
10.38 602
10.44 597
10.5 545
10.56 556
10.62 535
10.68 565
10.74 631
10.8 663
10.86 741
10.92 748
10.98 773
11.04 760
11.1 764
11.16 624
11.22 560
11.28 541
11.34 548
11.4 531
11.46 624
11.52 550
11.58 601
11.64 613
11.7 614
11.76 554
11.82 573
11.88 532
11.94 543
12 584
12.06 618
12.12 581
12.18 600
12.24 591
12.3 627
12.36 587
12.42 599
12.48 560
12.54 555
12.6 573
12.66 588
12.72 525
12.78 570
12.84 545
12.9 567
12.96 545
13.02 568
13.08 548
13.14 553
13.2 546
13.26 589
13.32 607
13.38 563
13.44 587
13.5 537
13.56 577
13.62 543
13.68 557
13.74 567
13.8 593
13.86 606
13.92 607
13.98 608
14.04 581
14.1 586
14.16 634
14.22 643
14.28 604
14.34 647
14.4 642
14.46 640
14.52 598
14.58 615
14.64 607
14.7 606
14.76 672
14.82 639
14.88 606
14.94 628
15 625
15.06 618
15.12 618
15.18 657
15.24 686
15.3 627
15.36 636
15.42 634
15.48 653
15.54 659
15.6 658
15.66 683
15.72 676
15.78 657
15.84 694
15.9 671
15.96 743
16.02 745
16.08 702
16.14 730
16.2 757
16.26 742
16.32 699
16.38 739
16.44 778
16.5 750
16.56 731
16.62 729
16.68 757
16.74 771
16.8 793
16.86 782
16.92 826
16.98 966
17.04 1122
17.1 1161
17.16 1092
17.22 845
17.28 838
17.34 822
17.4 866
17.46 870
17.52 847
17.58 843
17.64 909
17.7 844
17.76 861
17.82 863
17.88 897
17.94 895
18 918
18.06 908
18.12 944
18.18 918
18.24 886
18.3 956
18.36 993
18.42 1026
18.48 984
18.54 1014
18.6 1038
18.66 1045
18.72 1043
18.78 1108
18.84 1102
18.9 1011
18.96 1064
19.02 1099
19.08 1035
19.14 1143
19.2 1165
19.26 1126
19.32 1148
19.38 1129
19.44 1218
19.5 1188
19.56 1290
19.62 1325
19.68 1251
19.74 1218
19.8 1171
19.86 1151
19.92 1243
19.98 1203
20 1183