File: xrd-UiO-67/pxrddata/9-5-1.ASC
3 1939
3.06 1482
3.12 1337
3.18 1297
3.24 1245
3.3 1187
3.36 1172
3.42 1173
3.48 1138
3.54 1101
3.6 1030
3.66 1057
3.72 931
3.78 972
3.84 914
3.9 890
3.96 870
4.02 806
4.08 797
4.14 765
4.2 831
4.26 745
4.32 705
4.38 714
4.44 668
4.5 708
4.56 722
4.62 692
4.68 662
4.74 704
4.8 646
4.86 661
4.92 609
4.98 659
5.04 601
5.1 623
5.16 649
5.22 610
5.28 598
5.34 624
5.4 597
5.46 589
5.52 566
5.58 628
5.64 565
5.7 584
5.76 593
5.82 601
5.88 595
5.94 605
6 593
6.06 633
6.12 576
6.18 603
6.24 593
6.3 578
6.36 554
6.42 619
6.48 591
6.54 611
6.6 626
6.66 606
6.72 600
6.78 594
6.84 633
6.9 611
6.96 627
7.02 599
7.08 629
7.14 619
7.2 618
7.26 653
7.32 584
7.38 595
7.44 611
7.5 664
7.56 632
7.62 586
7.68 570
7.74 640
7.8 670
7.86 670
7.92 627
7.98 617
8.04 635
8.1 619
8.16 715
8.22 685
8.28 662
8.34 699
8.4 717
8.46 755
8.52 746
8.58 872
8.64 931
8.7 1151
8.76 1376
8.82 1711
8.88 2135
8.94 3039
9 4534
9.06 3816
9.12 3297
9.18 1004
9.24 819
9.3 755
9.36 765
9.42 769
9.48 771
9.54 786
9.6 855
9.66 920
9.72 1051
9.78 1220
9.84 1508
9.9 1943
9.96 2890
10.02 4347
10.08 2405
10.14 849
10.2 782
10.26 709
10.32 698
10.38 692
10.44 677
10.5 717
10.56 677
10.62 723
10.68 683
10.74 705
10.8 643
10.86 674
10.92 733
10.98 696
11.04 707
11.1 677
11.16 675
11.22 659
11.28 653
11.34 638
11.4 664
11.46 692
11.52 711
11.58 687
11.64 704
11.7 633
11.76 676
11.82 690
11.88 674
11.94 688
12 698
12.06 696
12.12 688
12.18 729
12.24 694
12.3 703
12.36 741
12.42 716
12.48 795
12.54 816
12.6 947
12.66 1127
12.72 1413
12.78 1245
12.84 902
12.9 780
12.96 759
13.02 819
13.08 765
13.14 858
13.2 865
13.26 1052
13.32 1142
13.38 1563
13.44 2188
13.5 2552
13.56 1320
13.62 857
13.68 764
13.74 718
13.8 740
13.86 717
13.92 733
13.98 773
14.04 708
14.1 729
14.16 751
14.22 763
14.28 701
14.34 742
14.4 767
14.46 769
14.52 790
14.58 784
14.64 777
14.7 762
14.76 781
14.82 779
14.88 788
14.94 798
15 749
15.06 728
15.12 845
15.18 780
15.24 799
15.3 809
15.36 806
15.42 805
15.48 811
15.54 861
15.6 840
15.66 808
15.72 854
15.78 845
15.84 849
15.9 875
15.96 833
16.02 894
16.08 859
16.14 849
16.2 868
16.26 891
16.32 892
16.38 855
16.44 916
16.5 909
16.56 917
16.62 965
16.68 877
16.74 998
16.8 957
16.86 993
16.92 1021
16.98 1088
17.04 1357
17.1 1584
17.16 1322
17.22 1047
17.28 1015
17.34 983
17.4 1011
17.46 1004
17.52 1022
17.58 1084
17.64 1104
17.7 1089
17.76 1093
17.82 1186
17.88 1235
17.94 1255
18 1170
18.06 1194
18.12 1160
18.18 1231
18.24 1110
18.3 1151
18.36 1244
18.42 1371
18.48 1365
18.54 1289
18.6 1289
18.66 1226
18.72 1185
18.78 1294
18.84 1243
18.9 1195
18.96 1245
19.02 1278
19.08 1273
19.14 1227
19.2 1277
19.26 1331
19.32 1253
19.38 1355
19.44 1336
19.5 1325
19.56 1371
19.62 1421
19.68 1377
19.74 1445
19.8 1545
19.86 1784
19.92 2254
19.98 2459
20 2381