File: xrd-UiO-67/pxrddata/9-5.ASC
3 1933
3.06 1388
3.12 1203
3.18 1221
3.24 1107
3.3 1063
3.36 1067
3.42 1036
3.48 1073
3.54 985
3.6 955
3.66 968
3.72 928
3.78 955
3.84 885
3.9 791
3.96 858
4.02 818
4.08 783
4.14 770
4.2 772
4.26 739
4.32 725
4.38 672
4.44 668
4.5 725
4.56 672
4.62 657
4.68 617
4.74 638
4.8 627
4.86 630
4.92 605
4.98 643
5.04 655
5.1 565
5.16 603
5.22 589
5.28 589
5.34 635
5.4 568
5.46 581
5.52 604
5.58 597
5.64 633
5.7 637
5.76 680
5.82 637
5.88 636
5.94 609
6 661
6.06 588
6.12 576
6.18 634
6.24 594
6.3 594
6.36 587
6.42 575
6.48 563
6.54 571
6.6 541
6.66 543
6.72 610
6.78 579
6.84 564
6.9 608
6.96 608
7.02 570
7.08 554
7.14 639
7.2 605
7.26 569
7.32 606
7.38 614
7.44 597
7.5 633
7.56 605
7.62 593
7.68 581
7.74 588
7.8 574
7.86 574
7.92 599
7.98 595
8.04 619
8.1 656
8.16 633
8.22 620
8.28 601
8.34 553
8.4 577
8.46 580
8.52 567
8.58 616
8.64 595
8.7 654
8.76 631
8.82 656
8.88 635
8.94 671
9 635
9.06 651
9.12 662
9.18 620
9.24 616
9.3 630
9.36 608
9.42 623
9.48 595
9.54 629
9.6 601
9.66 568
9.72 574
9.78 566
9.84 571
9.9 566
9.96 623
10.02 584
10.08 594
10.14 539
10.2 586
10.26 606
10.32 614
10.38 613
10.44 593
10.5 628
10.56 644
10.62 538
10.68 632
10.74 548
10.8 583
10.86 564
10.92 595
10.98 608
11.04 609
11.1 625
11.16 581
11.22 604
11.28 637
11.34 631
11.4 675
11.46 695
11.52 905
11.58 802
11.64 679
11.7 620
11.76 676
11.82 644
11.88 673
11.94 673
12 657
12.06 585
12.12 638
12.18 617
12.24 641
12.3 616
12.36 670
12.42 668
12.48 674
12.54 649
12.6 693
12.66 674
12.72 677
12.78 680
12.84 647
12.9 687
12.96 732
13.02 649
13.08 681
13.14 684
13.2 720
13.26 719
13.32 728
13.38 731
13.44 702
13.5 712
13.56 728
13.62 731
13.68 762
13.74 744
13.8 756
13.86 760
13.92 770
13.98 781
14.04 715
14.1 794
14.16 803
14.22 750
14.28 773
14.34 788
14.4 842
14.46 774
14.52 868
14.58 886
14.64 863
14.7 855
14.76 876
14.82 854
14.88 893
14.94 933
15 866
15.06 923
15.12 972
15.18 960
15.24 898
15.3 947
15.36 964
15.42 980
15.48 956
15.54 996
15.6 1070
15.66 1027
15.72 994
15.78 1005
15.84 1084
15.9 1088
15.96 1090
16.02 1072
16.08 1061
16.14 1061
16.2 1110
16.26 1185
16.32 1117
16.38 1168
16.44 1180
16.5 1162
16.56 1185
16.62 1213
16.68 1235
16.74 1182
16.8 1238
16.86 1241
16.92 1310
16.98 1309
17.04 1284
17.1 1350
17.16 1336
17.22 1320
17.28 1331
17.34 1379
17.4 1336
17.46 1372
17.52 1361
17.58 1395
17.64 1473
17.7 1474
17.76 1430
17.82 1436
17.88 1451
17.94 1408
18 1509
18.06 1527
18.12 1515
18.18 1515
18.24 1605
18.3 1540
18.36 1585
18.42 1584
18.48 1585
18.54 1664
18.6 1623
18.66 1640
18.72 1754
18.78 1705
18.84 1695
18.9 1699
18.96 1750
19.02 1761
19.08 1777
19.14 1738
19.2 1795
19.26 1804
19.32 1791
19.38 1769
19.44 1789
19.5 1842
19.56 1900
19.62 1900
19.68 1845
19.74 1844
19.8 1854
19.86 1960
19.92 1908
19.98 1949
20 1858