File: xrd-UiO-67/pxrddata/9-8.ASC
3 2412
3.06 1909
3.12 1608
3.18 1565
3.24 1461
3.3 1358
3.36 1291
3.42 1251
3.48 1214
3.54 1200
3.6 1179
3.66 1089
3.72 1082
3.78 1001
3.84 1033
3.9 973
3.96 964
4.02 967
4.08 936
4.14 918
4.2 899
4.26 868
4.32 817
4.38 814
4.44 858
4.5 770
4.56 840
4.62 731
4.68 787
4.74 800
4.8 747
4.86 757
4.92 766
4.98 692
5.04 741
5.1 734
5.16 706
5.22 737
5.28 758
5.34 685
5.4 729
5.46 726
5.52 751
5.58 755
5.64 760
5.7 744
5.76 766
5.82 713
5.88 738
5.94 693
6 687
6.06 712
6.12 738
6.18 709
6.24 754
6.3 710
6.36 742
6.42 689
6.48 775
6.54 775
6.6 729
6.66 744
6.72 713
6.78 744
6.84 705
6.9 713
6.96 740
7.02 745
7.08 742
7.14 742
7.2 773
7.26 695
7.32 776
7.38 728
7.44 752
7.5 738
7.56 777
7.62 744
7.68 784
7.74 780
7.8 744
7.86 759
7.92 782
7.98 829
8.04 835
8.1 799
8.16 870
8.22 916
8.28 881
8.34 947
8.4 960
8.46 1080
8.52 1240
8.58 1472
8.64 1676
8.7 2090
8.76 2687
8.82 3773
8.88 4974
8.94 4577
9 4849
9.06 2645
9.12 1504
9.18 1321
9.24 1268
9.3 1239
9.36 1215
9.42 1203
9.48 1222
9.54 1239
9.6 1371
9.66 1543
9.72 1981
9.78 2356
9.84 3198
9.9 4707
9.96 4421
10.02 2107
10.08 1416
10.14 1199
10.2 1048
10.26 996
10.32 967
10.38 893
10.44 907
10.5 913
10.56 870
10.62 843
10.68 917
10.74 934
10.8 908
10.86 881
10.92 853
10.98 872
11.04 863
11.1 866
11.16 846
11.22 833
11.28 820
11.34 865
11.4 852
11.46 816
11.52 854
11.58 855
11.64 874
11.7 881
11.76 811
11.82 853
11.88 842
11.94 849
12 819
12.06 907
12.12 868
12.18 890
12.24 911
12.3 934
12.36 1006
12.42 1116
12.48 1179
12.54 1374
12.6 1554
12.66 1622
12.72 1339
12.78 1152
12.84 1063
12.9 1055
12.96 1070
13.02 1053
13.08 1072
13.14 1267
13.2 1392
13.26 1543
13.32 2019
13.38 2405
13.44 1898
13.5 1187
13.56 995
13.62 996
13.68 987
13.74 942
13.8 1007
13.86 978
13.92 946
13.98 975
14.04 976
14.1 1001
14.16 955
14.22 1001
14.28 965
14.34 998
14.4 912
14.46 976
14.52 1027
14.58 1005
14.64 992
14.7 1013
14.76 983
14.82 984
14.88 1044
14.94 980
15 1033
15.06 1005
15.12 988
15.18 1033
15.24 1087
15.3 1066
15.36 1036
15.42 1017
15.48 1047
15.54 1095
15.6 1126
15.66 1034
15.72 1071
15.78 1169
15.84 1117
15.9 1092
15.96 1106
16.02 1130
16.08 1133
16.14 1105
16.2 1141
16.26 1122
16.32 1100
16.38 1144
16.44 1155
16.5 1154
16.56 1167
16.62 1210
16.68 1194
16.74 1372
16.8 1418
16.86 1465
16.92 1730
16.98 2051
17.04 2201
17.1 1469
17.16 1264
17.22 1284
17.28 1281
17.34 1247
17.4 1249
17.46 1271
17.52 1261
17.58 1304
17.64 1323
17.7 1347
17.76 1457
17.82 1384
17.88 1398
17.94 1390
18 1414
18.06 1361
18.12 1405
18.18 1466
18.24 1422
18.3 1495
18.36 1450
18.42 1408
18.48 1394
18.54 1414
18.6 1394
18.66 1385
18.72 1404
18.78 1452
18.84 1497
18.9 1433
18.96 1391
19.02 1490
19.08 1470
19.14 1437
19.2 1526
19.26 1461
19.32 1517
19.38 1494
19.44 1490
19.5 1524
19.56 1576
19.62 1625
19.68 1692
19.74 1867
19.8 2037
19.86 2175
19.92 2097
19.98 2028
20 2046