File: xrd-UiO-67/pxrddata/9-9.ASC
3 2334
3.06 1878
3.12 1665
3.18 1547
3.24 1492
3.3 1364
3.36 1374
3.42 1353
3.48 1301
3.54 1203
3.6 1167
3.66 1141
3.72 1114
3.78 1054
3.84 1085
3.9 1053
3.96 965
4.02 1016
4.08 908
4.14 963
4.2 930
4.26 893
4.32 853
4.38 854
4.44 787
4.5 852
4.56 782
4.62 814
4.68 780
4.74 771
4.8 741
4.86 765
4.92 759
4.98 721
5.04 709
5.1 740
5.16 724
5.22 667
5.28 693
5.34 757
5.4 697
5.46 699
5.52 730
5.58 680
5.64 696
5.7 694
5.76 654
5.82 707
5.88 675
5.94 691
6 674
6.06 683
6.12 649
6.18 675
6.24 689
6.3 722
6.36 692
6.42 677
6.48 663
6.54 675
6.6 659
6.66 662
6.72 671
6.78 694
6.84 698
6.9 694
6.96 676
7.02 696
7.08 721
7.14 667
7.2 629
7.26 757
7.32 686
7.38 669
7.44 683
7.5 671
7.56 725
7.62 686
7.68 676
7.74 739
7.8 714
7.86 686
7.92 661
7.98 676
8.04 722
8.1 696
8.16 676
8.22 705
8.28 699
8.34 710
8.4 662
8.46 734
8.52 765
8.58 749
8.64 819
8.7 869
8.76 915
8.82 1082
8.88 1198
8.94 1332
9 1447
9.06 1348
9.12 1155
9.18 1070
9.24 953
9.3 879
9.36 844
9.42 818
9.48 798
9.54 850
9.6 778
9.66 802
9.72 884
9.78 959
9.84 1049
9.9 1160
9.96 1209
10.02 1205
10.08 1062
10.14 970
10.2 933
10.26 866
10.32 770
10.38 770
10.44 726
10.5 682
10.56 677
10.62 696
10.68 697
10.74 675
10.8 663
10.86 676
10.92 661
10.98 630
11.04 628
11.1 649
11.16 681
11.22 623
11.28 647
11.34 686
11.4 654
11.46 675
11.52 627
11.58 639
11.64 592
11.7 623
11.76 623
11.82 623
11.88 658
11.94 663
12 618
12.06 636
12.12 631
12.18 625
12.24 668
12.3 679
12.36 645
12.42 654
12.48 672
12.54 716
12.6 759
12.66 738
12.72 708
12.78 711
12.84 735
12.9 732
12.96 704
13.02 666
13.08 651
13.14 669
13.2 708
13.26 706
13.32 667
13.38 711
13.44 678
13.5 670
13.56 660
13.62 623
13.68 634
13.74 635
13.8 686
13.86 660
13.92 681
13.98 649
14.04 651
14.1 658
14.16 636
14.22 635
14.28 660
14.34 691
14.4 667
14.46 682
14.52 644
14.58 742
14.64 721
14.7 683
14.76 745
14.82 680
14.88 673
14.94 695
15 716
15.06 731
15.12 683
15.18 729
15.24 693
15.3 720
15.36 688
15.42 699
15.48 766
15.54 752
15.6 727
15.66 773
15.72 713
15.78 770
15.84 709
15.9 793
15.96 761
16.02 756
16.08 771
16.14 756
16.2 762
16.26 766
16.32 820
16.38 763
16.44 780
16.5 774
16.56 763
16.62 788
16.68 846
16.74 874
16.8 882
16.86 915
16.92 1044
16.98 1251
17.04 1222
17.1 1158
17.16 1049
17.22 996
17.28 936
17.34 955
17.4 929
17.46 876
17.52 920
17.58 933
17.64 1018
17.7 938
17.76 974
17.82 970
17.88 962
17.94 976
18 1017
18.06 1003
18.12 1020
18.18 1013
18.24 1037
18.3 1021
18.36 1033
18.42 1011
18.48 1114
18.54 1054
18.6 1008
18.66 1096
18.72 1094
18.78 1107
18.84 1090
18.9 1060
18.96 1074
19.02 1104
19.08 1189
19.14 1129
19.2 1109
19.26 1179
19.32 1192
19.38 1205
19.44 1214
19.5 1273
19.56 1225
19.62 1158
19.68 1206
19.74 1310
19.8 1294
19.86 1327
19.92 1295
19.98 1310
20 1323